#FORMAT	     : EMSA/MAS Spectral Data File
#VERSION     : 1.0
#TITLE       : Mn_edge
#DATE        : 
#TIME        : 
#OWNER       : 
#NPOINTS     : 2021
#NCOLUMNS    : 1
#XUNITS      : eV
#YUNITS      : Counts
#DATATYPE    : XY
#XPERCHAN    : 3.000000e-001
#OFFSET      : 4.460000e+002
#SIGNALTYPE  : ELS
#BEAMKV      : 300000.000000
#MAGCAM      : 640000.000000
#EMISSION    : 0.000000
#PROBECUR    : 0.000000
#BEAMDIAM    : 0.000000
#SPECTRUM    : Spectral Data Starts Here
4.460000e+002, 0.000000e+000
4.463000e+002, 0.000000e+000
4.466000e+002, 0.000000e+000
4.469000e+002, 0.000000e+000
4.472000e+002, 0.000000e+000
4.475000e+002, 0.000000e+000
4.478000e+002, 0.000000e+000
4.481000e+002, 0.000000e+000
4.484000e+002, 0.000000e+000
4.487000e+002, 0.000000e+000
4.490000e+002, 0.000000e+000
4.493000e+002, 0.000000e+000
4.496000e+002, 0.000000e+000
4.499000e+002, 0.000000e+000
4.502000e+002, 0.000000e+000
4.505000e+002, 0.000000e+000
4.508000e+002, 0.000000e+000
4.511000e+002, 0.000000e+000
4.514000e+002, 0.000000e+000
4.517000e+002, 0.000000e+000
4.520000e+002, 0.000000e+000
4.523000e+002, 0.000000e+000
4.526000e+002, 0.000000e+000
4.529000e+002, 0.000000e+000
4.532000e+002, 0.000000e+000
4.535000e+002, 0.000000e+000
4.538000e+002, 0.000000e+000
4.541000e+002, 0.000000e+000
4.544000e+002, 0.000000e+000
4.547000e+002, 0.000000e+000
4.550000e+002, 0.000000e+000
4.553000e+002, 0.000000e+000
4.556000e+002, 0.000000e+000
4.559000e+002, 0.000000e+000
4.562000e+002, 0.000000e+000
4.565000e+002, 0.000000e+000
4.568000e+002, 0.000000e+000
4.571000e+002, 0.000000e+000
4.574000e+002, 0.000000e+000
4.577000e+002, 0.000000e+000
4.580000e+002, 0.000000e+000
4.583000e+002, 0.000000e+000
4.586000e+002, 0.000000e+000
4.589000e+002, 0.000000e+000
4.592000e+002, 0.000000e+000
4.595000e+002, 0.000000e+000
4.598000e+002, 0.000000e+000
4.601000e+002, 0.000000e+000
4.604000e+002, 0.000000e+000
4.607000e+002, 0.000000e+000
4.610000e+002, 0.000000e+000
4.613000e+002, 0.000000e+000
4.616000e+002, 0.000000e+000
4.619000e+002, 0.000000e+000
4.622000e+002, 0.000000e+000
4.625000e+002, 0.000000e+000
4.628000e+002, 0.000000e+000
4.631000e+002, 0.000000e+000
4.634000e+002, 0.000000e+000
4.637000e+002, 0.000000e+000
4.640000e+002, 0.000000e+000
4.643000e+002, 0.000000e+000
4.646000e+002, 0.000000e+000
4.649000e+002, 0.000000e+000
4.652000e+002, 0.000000e+000
4.655000e+002, 0.000000e+000
4.658000e+002, 0.000000e+000
4.661000e+002, 0.000000e+000
4.664000e+002, 0.000000e+000
4.667000e+002, 0.000000e+000
4.670000e+002, 0.000000e+000
4.673000e+002, 0.000000e+000
4.676000e+002, 0.000000e+000
4.679000e+002, 0.000000e+000
4.682000e+002, 0.000000e+000
4.685000e+002, 0.000000e+000
4.688000e+002, 0.000000e+000
4.691000e+002, 0.000000e+000
4.694000e+002, 0.000000e+000
4.697000e+002, 0.000000e+000
4.700000e+002, 0.000000e+000
4.703000e+002, 0.000000e+000
4.706000e+002, 0.000000e+000
4.709000e+002, 0.000000e+000
4.712000e+002, 0.000000e+000
4.715000e+002, 0.000000e+000
4.718000e+002, 0.000000e+000
4.721000e+002, 0.000000e+000
4.724000e+002, 0.000000e+000
4.727000e+002, 0.000000e+000
4.730000e+002, 0.000000e+000
4.733000e+002, 0.000000e+000
4.736000e+002, 0.000000e+000
4.739000e+002, 0.000000e+000
4.742000e+002, 0.000000e+000
4.745000e+002, 0.000000e+000
4.748000e+002, 0.000000e+000
4.751000e+002, 0.000000e+000
4.754000e+002, 0.000000e+000
4.757000e+002, 0.000000e+000
4.760000e+002, 0.000000e+000
4.763000e+002, 0.000000e+000
4.766000e+002, 0.000000e+000
4.769000e+002, 0.000000e+000
4.772000e+002, 0.000000e+000
4.775000e+002, 0.000000e+000
4.778000e+002, 0.000000e+000
4.781000e+002, 0.000000e+000
4.784000e+002, 0.000000e+000
4.787000e+002, 0.000000e+000
4.790000e+002, 0.000000e+000
4.793000e+002, 0.000000e+000
4.796000e+002, 0.000000e+000
4.799000e+002, 0.000000e+000
4.802000e+002, 0.000000e+000
4.805000e+002, 0.000000e+000
4.808000e+002, 0.000000e+000
4.811000e+002, 0.000000e+000
4.814000e+002, 0.000000e+000
4.817000e+002, 0.000000e+000
4.820000e+002, 0.000000e+000
4.823000e+002, 0.000000e+000
4.826000e+002, 0.000000e+000
4.829000e+002, 0.000000e+000
4.832000e+002, 0.000000e+000
4.835000e+002, 0.000000e+000
4.838000e+002, 0.000000e+000
4.841000e+002, 0.000000e+000
4.844000e+002, 0.000000e+000
4.847000e+002, 0.000000e+000
4.850000e+002, 0.000000e+000
4.853000e+002, 0.000000e+000
4.856000e+002, 0.000000e+000
4.859000e+002, 0.000000e+000
4.862000e+002, 0.000000e+000
4.865000e+002, 0.000000e+000
4.868000e+002, 0.000000e+000
4.871000e+002, 0.000000e+000
4.874000e+002, 0.000000e+000
4.877000e+002, 0.000000e+000
4.880000e+002, 0.000000e+000
4.883000e+002, 0.000000e+000
4.886000e+002, 0.000000e+000
4.889000e+002, 0.000000e+000
4.892000e+002, 0.000000e+000
4.895000e+002, 0.000000e+000
4.898000e+002, 0.000000e+000
4.901000e+002, 0.000000e+000
4.904000e+002, 0.000000e+000
4.907000e+002, 0.000000e+000
4.910000e+002, 0.000000e+000
4.913000e+002, 0.000000e+000
4.916000e+002, 0.000000e+000
4.919000e+002, 0.000000e+000
4.922000e+002, 0.000000e+000
4.925000e+002, 0.000000e+000
4.928000e+002, 0.000000e+000
4.931000e+002, 0.000000e+000
4.934000e+002, 0.000000e+000
4.937000e+002, 0.000000e+000
4.940000e+002, 0.000000e+000
4.943000e+002, 0.000000e+000
4.946000e+002, 0.000000e+000
4.949000e+002, 0.000000e+000
4.952000e+002, 0.000000e+000
4.955000e+002, 0.000000e+000
4.958000e+002, 0.000000e+000
4.961000e+002, 0.000000e+000
4.964000e+002, 0.000000e+000
4.967000e+002, 0.000000e+000
4.970000e+002, 0.000000e+000
4.973000e+002, 0.000000e+000
4.976000e+002, 0.000000e+000
4.979000e+002, 0.000000e+000
4.982000e+002, 0.000000e+000
4.985000e+002, 0.000000e+000
4.988000e+002, 0.000000e+000
4.991000e+002, 0.000000e+000
4.994000e+002, 0.000000e+000
4.997000e+002, 0.000000e+000
5.000000e+002, 0.000000e+000
5.003000e+002, 0.000000e+000
5.006000e+002, 0.000000e+000
5.009000e+002, 0.000000e+000
5.012000e+002, 0.000000e+000
5.015000e+002, 0.000000e+000
5.018000e+002, 0.000000e+000
5.021000e+002, 0.000000e+000
5.024000e+002, 0.000000e+000
5.027000e+002, 0.000000e+000
5.030000e+002, 0.000000e+000
5.033000e+002, 0.000000e+000
5.036000e+002, 0.000000e+000
5.039000e+002, 0.000000e+000
5.042000e+002, 0.000000e+000
5.045000e+002, 0.000000e+000
5.048000e+002, 0.000000e+000
5.051000e+002, 0.000000e+000
5.054000e+002, 0.000000e+000
5.057000e+002, 0.000000e+000
5.060000e+002, 0.000000e+000
5.063000e+002, 0.000000e+000
5.066000e+002, 0.000000e+000
5.069000e+002, 0.000000e+000
5.072000e+002, 0.000000e+000
5.075000e+002, 0.000000e+000
5.078000e+002, 0.000000e+000
5.081000e+002, 0.000000e+000
5.084000e+002, 0.000000e+000
5.087000e+002, 0.000000e+000
5.090000e+002, 0.000000e+000
5.093000e+002, 0.000000e+000
5.096000e+002, 0.000000e+000
5.099000e+002, 0.000000e+000
5.102000e+002, 0.000000e+000
5.105000e+002, 0.000000e+000
5.108000e+002, 0.000000e+000
5.111000e+002, 0.000000e+000
5.114000e+002, 0.000000e+000
5.117000e+002, 0.000000e+000
5.120000e+002, 0.000000e+000
5.123000e+002, 0.000000e+000
5.126000e+002, 0.000000e+000
5.129000e+002, 0.000000e+000
5.132000e+002, 0.000000e+000
5.135000e+002, 0.000000e+000
5.138000e+002, 0.000000e+000
5.141000e+002, 0.000000e+000
5.144000e+002, 0.000000e+000
5.147000e+002, 0.000000e+000
5.150000e+002, 0.000000e+000
5.153000e+002, 0.000000e+000
5.156000e+002, 0.000000e+000
5.159000e+002, 0.000000e+000
5.162000e+002, 0.000000e+000
5.165000e+002, 0.000000e+000
5.168000e+002, 0.000000e+000
5.171000e+002, 0.000000e+000
5.174000e+002, 0.000000e+000
5.177000e+002, 0.000000e+000
5.180000e+002, 0.000000e+000
5.183000e+002, 0.000000e+000
5.186000e+002, 0.000000e+000
5.189000e+002, 0.000000e+000
5.192000e+002, 0.000000e+000
5.195000e+002, 0.000000e+000
5.198000e+002, 0.000000e+000
5.201000e+002, 0.000000e+000
5.204000e+002, 0.000000e+000
5.207000e+002, 0.000000e+000
5.210000e+002, 0.000000e+000
5.213000e+002, 0.000000e+000
5.216000e+002, 0.000000e+000
5.219000e+002, 0.000000e+000
5.222000e+002, 0.000000e+000
5.225000e+002, 0.000000e+000
5.228000e+002, 0.000000e+000
5.231000e+002, 0.000000e+000
5.234000e+002, 0.000000e+000
5.237000e+002, 0.000000e+000
5.240000e+002, 0.000000e+000
5.243000e+002, 0.000000e+000
5.246000e+002, 0.000000e+000
5.249000e+002, 0.000000e+000
5.252000e+002, 0.000000e+000
5.255000e+002, 0.000000e+000
5.258000e+002, 0.000000e+000
5.261000e+002, 0.000000e+000
5.264000e+002, 0.000000e+000
5.267000e+002, 0.000000e+000
5.270000e+002, 0.000000e+000
5.273000e+002, 0.000000e+000
5.276000e+002, 0.000000e+000
5.279000e+002, 0.000000e+000
5.282000e+002, 0.000000e+000
5.285000e+002, 0.000000e+000
5.288000e+002, 0.000000e+000
5.291000e+002, 0.000000e+000
5.294000e+002, 0.000000e+000
5.297000e+002, 0.000000e+000
5.300000e+002, 0.000000e+000
5.303000e+002, 0.000000e+000
5.306000e+002, 0.000000e+000
5.309000e+002, 0.000000e+000
5.312000e+002, 0.000000e+000
5.315000e+002, 0.000000e+000
5.318000e+002, 0.000000e+000
5.321000e+002, 0.000000e+000
5.324000e+002, 0.000000e+000
5.327000e+002, 0.000000e+000
5.330000e+002, 0.000000e+000
5.333000e+002, 0.000000e+000
5.336000e+002, 0.000000e+000
5.339000e+002, 0.000000e+000
5.342000e+002, 0.000000e+000
5.345000e+002, 0.000000e+000
5.348000e+002, 0.000000e+000
5.351000e+002, 0.000000e+000
5.354000e+002, 0.000000e+000
5.357000e+002, 0.000000e+000
5.360000e+002, 0.000000e+000
5.363000e+002, 0.000000e+000
5.366000e+002, 0.000000e+000
5.369000e+002, 0.000000e+000
5.372000e+002, 0.000000e+000
5.375000e+002, 0.000000e+000
5.378000e+002, 0.000000e+000
5.381000e+002, 0.000000e+000
5.384000e+002, 0.000000e+000
5.387000e+002, 0.000000e+000
5.390000e+002, 0.000000e+000
5.393000e+002, 0.000000e+000
5.396000e+002, 0.000000e+000
5.399000e+002, 0.000000e+000
5.402000e+002, 0.000000e+000
5.405000e+002, 0.000000e+000
5.408000e+002, 0.000000e+000
5.411000e+002, 0.000000e+000
5.414000e+002, 0.000000e+000
5.417000e+002, 0.000000e+000
5.420000e+002, 0.000000e+000
5.423000e+002, 0.000000e+000
5.426000e+002, 0.000000e+000
5.429000e+002, 0.000000e+000
5.432000e+002, 0.000000e+000
5.435000e+002, 0.000000e+000
5.438000e+002, 0.000000e+000
5.441000e+002, 0.000000e+000
5.444000e+002, 0.000000e+000
5.447000e+002, 0.000000e+000
5.450000e+002, 0.000000e+000
5.453000e+002, 0.000000e+000
5.456000e+002, 0.000000e+000
5.459000e+002, 0.000000e+000
5.462000e+002, 0.000000e+000
5.465000e+002, 0.000000e+000
5.468000e+002, 0.000000e+000
5.471000e+002, 0.000000e+000
5.474000e+002, 0.000000e+000
5.477000e+002, 0.000000e+000
5.480000e+002, 0.000000e+000
5.483000e+002, 0.000000e+000
5.486000e+002, 0.000000e+000
5.489000e+002, 0.000000e+000
5.492000e+002, 0.000000e+000
5.495000e+002, 0.000000e+000
5.498000e+002, 0.000000e+000
5.501000e+002, 0.000000e+000
5.504000e+002, 0.000000e+000
5.507000e+002, 0.000000e+000
5.510000e+002, 0.000000e+000
5.513000e+002, 0.000000e+000
5.516000e+002, 0.000000e+000
5.519000e+002, 0.000000e+000
5.522000e+002, 0.000000e+000
5.525000e+002, 0.000000e+000
5.528000e+002, 0.000000e+000
5.531000e+002, 0.000000e+000
5.534000e+002, 0.000000e+000
5.537000e+002, 0.000000e+000
5.540000e+002, 0.000000e+000
5.543000e+002, 0.000000e+000
5.546000e+002, 0.000000e+000
5.549000e+002, 0.000000e+000
5.552000e+002, 0.000000e+000
5.555000e+002, 0.000000e+000
5.558000e+002, 0.000000e+000
5.561000e+002, 0.000000e+000
5.564000e+002, 0.000000e+000
5.567000e+002, 0.000000e+000
5.570000e+002, 0.000000e+000
5.573000e+002, 0.000000e+000
5.576000e+002, 0.000000e+000
5.579000e+002, 0.000000e+000
5.582000e+002, 0.000000e+000
5.585000e+002, 0.000000e+000
5.588000e+002, 0.000000e+000
5.591000e+002, 0.000000e+000
5.594000e+002, 0.000000e+000
5.597000e+002, 0.000000e+000
5.600000e+002, 0.000000e+000
5.603000e+002, 0.000000e+000
5.606000e+002, 0.000000e+000
5.609000e+002, 0.000000e+000
5.612000e+002, 0.000000e+000
5.615000e+002, 0.000000e+000
5.618000e+002, 0.000000e+000
5.621000e+002, 0.000000e+000
5.624000e+002, 0.000000e+000
5.627000e+002, 0.000000e+000
5.630000e+002, 0.000000e+000
5.633000e+002, 0.000000e+000
5.636000e+002, 0.000000e+000
5.639000e+002, 0.000000e+000
5.642000e+002, 0.000000e+000
5.645000e+002, 0.000000e+000
5.648000e+002, 0.000000e+000
5.651000e+002, 0.000000e+000
5.654000e+002, 0.000000e+000
5.657000e+002, 0.000000e+000
5.660000e+002, 0.000000e+000
5.663000e+002, 0.000000e+000
5.666000e+002, 0.000000e+000
5.669000e+002, 0.000000e+000
5.672000e+002, 0.000000e+000
5.675000e+002, 0.000000e+000
5.678000e+002, 0.000000e+000
5.681000e+002, 0.000000e+000
5.684000e+002, 0.000000e+000
5.687000e+002, 0.000000e+000
5.690000e+002, 0.000000e+000
5.693000e+002, 0.000000e+000
5.696000e+002, 0.000000e+000
5.699000e+002, 0.000000e+000
5.702000e+002, 0.000000e+000
5.705000e+002, 0.000000e+000
5.708000e+002, 0.000000e+000
5.711000e+002, 0.000000e+000
5.714000e+002, 0.000000e+000
5.717000e+002, 0.000000e+000
5.720000e+002, 0.000000e+000
5.723000e+002, 0.000000e+000
5.726000e+002, 0.000000e+000
5.729000e+002, 0.000000e+000
5.732000e+002, 0.000000e+000
5.735000e+002, 0.000000e+000
5.738000e+002, 0.000000e+000
5.741000e+002, 0.000000e+000
5.744000e+002, 0.000000e+000
5.747000e+002, 0.000000e+000
5.750000e+002, 0.000000e+000
5.753000e+002, 0.000000e+000
5.756000e+002, 0.000000e+000
5.759000e+002, 0.000000e+000
5.762000e+002, 0.000000e+000
5.765000e+002, 0.000000e+000
5.768000e+002, 0.000000e+000
5.771000e+002, 0.000000e+000
5.774000e+002, 0.000000e+000
5.777000e+002, 0.000000e+000
5.780000e+002, 0.000000e+000
5.783000e+002, 0.000000e+000
5.786000e+002, 0.000000e+000
5.789000e+002, 0.000000e+000
5.792000e+002, 0.000000e+000
5.795000e+002, 0.000000e+000
5.798000e+002, 0.000000e+000
5.801000e+002, 0.000000e+000
5.804000e+002, 0.000000e+000
5.807000e+002, 0.000000e+000
5.810000e+002, 0.000000e+000
5.813000e+002, 0.000000e+000
5.816000e+002, 0.000000e+000
5.819000e+002, 0.000000e+000
5.822000e+002, 0.000000e+000
5.825000e+002, 0.000000e+000
5.828000e+002, 0.000000e+000
5.831000e+002, 0.000000e+000
5.834000e+002, 0.000000e+000
5.837000e+002, 0.000000e+000
5.840000e+002, 0.000000e+000
5.843000e+002, 0.000000e+000
5.846000e+002, 0.000000e+000
5.849000e+002, 0.000000e+000
5.852000e+002, 0.000000e+000
5.855000e+002, 0.000000e+000
5.858000e+002, 0.000000e+000
5.861000e+002, 0.000000e+000
5.864000e+002, 0.000000e+000
5.867000e+002, 0.000000e+000
5.870000e+002, 0.000000e+000
5.873000e+002, 0.000000e+000
5.876000e+002, 0.000000e+000
5.879000e+002, 0.000000e+000
5.882000e+002, 0.000000e+000
5.885000e+002, 0.000000e+000
5.888000e+002, 0.000000e+000
5.891000e+002, 0.000000e+000
5.894000e+002, 0.000000e+000
5.897000e+002, 0.000000e+000
5.900000e+002, 0.000000e+000
5.903000e+002, 0.000000e+000
5.906000e+002, 0.000000e+000
5.909000e+002, 0.000000e+000
5.912000e+002, 0.000000e+000
5.915000e+002, 0.000000e+000
5.918000e+002, 0.000000e+000
5.921000e+002, 0.000000e+000
5.924000e+002, 0.000000e+000
5.927000e+002, 0.000000e+000
5.930000e+002, 0.000000e+000
5.933000e+002, 0.000000e+000
5.936000e+002, 0.000000e+000
5.939000e+002, 0.000000e+000
5.942000e+002, 0.000000e+000
5.945000e+002, 0.000000e+000
5.948000e+002, 0.000000e+000
5.951000e+002, 0.000000e+000
5.954000e+002, 0.000000e+000
5.957000e+002, 0.000000e+000
5.960000e+002, 0.000000e+000
5.963000e+002, 0.000000e+000
5.966000e+002, 0.000000e+000
5.969000e+002, 0.000000e+000
5.972000e+002, 0.000000e+000
5.975000e+002, 0.000000e+000
5.978000e+002, 0.000000e+000
5.981000e+002, 0.000000e+000
5.984000e+002, 0.000000e+000
5.987000e+002, 0.000000e+000
5.990000e+002, 0.000000e+000
5.993000e+002, 0.000000e+000
5.996000e+002, 0.000000e+000
5.999000e+002, 0.000000e+000
6.002000e+002, 0.000000e+000
6.005000e+002, 0.000000e+000
6.008000e+002, 2.602669e+003
6.011000e+002, 9.522518e+002
6.014000e+002, 6.449075e+002
6.017000e+002, 5.116799e+001
6.020000e+002, -1.372809e+003
6.023000e+002, 1.173446e+003
6.026000e+002, 3.527902e+003
6.029000e+002, 1.618219e+003
6.032000e+002, -1.782636e+003
6.035000e+002, -1.501535e+003
6.038000e+002, -2.736509e+003
6.041000e+002, -1.721213e+003
6.044000e+002, -7.910835e+002
6.047000e+002, 1.669787e+003
6.050000e+002, 3.068690e+002
6.053000e+002, 1.482069e+003
6.056000e+002, 2.598701e+003
6.059000e+002, 2.602609e+003
6.062000e+002, 3.504139e+003
6.065000e+002, 7.025511e+003
6.068000e+002, 3.924006e+003
6.071000e+002, 1.485875e+003
6.074000e+002, 1.099338e+002
6.077000e+002, 2.835253e+002
6.080000e+002, -7.465677e+002
6.083000e+002, -1.333750e+003
6.086000e+002, -2.217678e+003
6.089000e+002, -1.471505e+003
6.092000e+002, -4.083325e+003
6.095000e+002, -2.204012e+003
6.098000e+002, -2.833001e+003
6.101000e+002, -4.075762e+003
6.104000e+002, -4.057448e+003
6.107000e+002, -3.622372e+003
6.110000e+002, -1.964001e+003
6.113000e+002, 1.048510e+003
6.116000e+002, -1.199463e+003
6.119000e+002, -1.668420e+003
6.122000e+002, -2.242702e+003
6.125000e+002, -2.055497e+003
6.128000e+002, -1.983834e+003
6.131000e+002, -5.024213e+003
6.134000e+002, -1.144820e+003
6.137000e+002, -8.214975e+002
6.140000e+002, -1.609214e+003
6.143000e+002, -8.964982e+002
6.146000e+002, -1.186629e+002
6.149000e+002, 3.107932e+002
6.152000e+002, 1.127715e+003
6.155000e+002, 2.417041e+003
6.158000e+002, 3.311897e+003
6.161000e+002, 3.290878e+003
6.164000e+002, 3.719848e+002
6.167000e+002, 5.036250e+002
6.170000e+002, -1.335757e+002
6.173000e+002, -1.986335e+003
6.176000e+002, -1.215870e+003
6.179000e+002, -4.133749e+001
6.182000e+002, -1.760923e+003
6.185000e+002, -7.614998e+002
6.188000e+002, -5.813181e+002
6.191000e+002, 1.619811e+003
6.194000e+002, 3.792920e+003
6.197000e+002, 3.955259e+003
6.200000e+002, 5.913674e+003
6.203000e+002, 5.527759e+003
6.206000e+002, 2.478483e+003
6.209000e+002, 3.476599e+003
6.212000e+002, 1.406887e+003
6.215000e+002, 1.010881e+003
6.218000e+002, 1.241362e+003
6.221000e+002, -6.080128e+002
6.224000e+002, -3.814604e+002
6.227000e+002, 4.292075e+002
6.230000e+002, 5.901165e+002
6.233000e+002, 6.418615e+002
6.236000e+002, 2.311935e+002
6.239000e+002, 1.516445e+002
6.242000e+002, 2.076278e+003
6.245000e+002, 3.093626e+003
6.248000e+002, 7.599503e+003
6.251000e+002, 1.101766e+004
6.254000e+002, 1.392731e+004
6.257000e+002, 2.022469e+004
6.260000e+002, 2.603528e+004
6.263000e+002, 3.513100e+004
6.266000e+002, 4.439056e+004
6.269000e+002, 5.853613e+004
6.272000e+002, 7.794995e+004
6.275000e+002, 9.583163e+004
6.278000e+002, 1.133263e+005
6.281000e+002, 1.321814e+005
6.284000e+002, 1.484833e+005
6.287000e+002, 1.635297e+005
6.290000e+002, 1.764780e+005
6.293000e+002, 1.919906e+005
6.296000e+002, 2.083929e+005
6.299000e+002, 2.212809e+005
6.302000e+002, 2.325727e+005
6.305000e+002, 2.328184e+005
6.308000e+002, 2.225158e+005
6.311000e+002, 2.066054e+005
6.314000e+002, 1.937221e+005
6.317000e+002, 1.771131e+005
6.320000e+002, 1.621287e+005
6.323000e+002, 1.429449e+005
6.326000e+002, 1.255621e+005
6.329000e+002, 1.121806e+005
6.332000e+002, 1.000913e+005
6.335000e+002, 8.826807e+004
6.338000e+002, 7.923754e+004
6.341000e+002, 7.424509e+004
6.344000e+002, 7.161104e+004
6.347000e+002, 6.939708e+004
6.350000e+002, 6.615412e+004
6.353000e+002, 6.131128e+004
6.356000e+002, 5.670943e+004
6.359000e+002, 5.592703e+004
6.362000e+002, 5.509350e+004
6.365000e+002, 5.740019e+004
6.368000e+002, 6.081363e+004
6.371000e+002, 6.705679e+004
6.374000e+002, 6.948724e+004
6.377000e+002, 8.040138e+004
6.380000e+002, 8.835762e+004
6.383000e+002, 9.587923e+004
6.386000e+002, 1.080957e+005
6.389000e+002, 1.192662e+005
6.392000e+002, 1.282078e+005
6.395000e+002, 1.376753e+005
6.398000e+002, 1.471457e+005
6.401000e+002, 1.542240e+005
6.404000e+002, 1.593832e+005
6.407000e+002, 1.599352e+005
6.410000e+002, 1.586659e+005
6.413000e+002, 1.504674e+005
6.416000e+002, 1.455440e+005
6.419000e+002, 1.367110e+005
6.422000e+002, 1.281789e+005
6.425000e+002, 1.206627e+005
6.428000e+002, 1.089829e+005
6.431000e+002, 9.649605e+004
6.434000e+002, 8.865344e+004
6.437000e+002, 8.174318e+004
6.440000e+002, 7.394673e+004
6.443000e+002, 6.898177e+004
6.446000e+002, 6.370436e+004
6.449000e+002, 6.264750e+004
6.452000e+002, 5.722317e+004
6.455000e+002, 5.811890e+004
6.458000e+002, 5.892547e+004
6.461000e+002, 5.828535e+004
6.464000e+002, 5.965907e+004
6.467000e+002, 5.970006e+004
6.470000e+002, 5.879268e+004
6.473000e+002, 5.652214e+004
6.476000e+002, 5.590108e+004
6.479000e+002, 5.561182e+004
6.482000e+002, 5.856232e+004
6.485000e+002, 5.712841e+004
6.488000e+002, 5.844698e+004
6.491000e+002, 6.157564e+004
6.494000e+002, 6.172478e+004
6.497000e+002, 6.462695e+004
6.500000e+002, 6.566363e+004
6.503000e+002, 6.864310e+004
6.506000e+002, 6.831627e+004
6.509000e+002, 6.887419e+004
6.512000e+002, 7.066043e+004
6.515000e+002, 7.322980e+004
6.518000e+002, 7.564645e+004
6.521000e+002, 7.635354e+004
6.524000e+002, 7.648542e+004
6.527000e+002, 7.514247e+004
6.530000e+002, 7.667091e+004
6.533000e+002, 7.572824e+004
6.536000e+002, 7.459813e+004
6.539000e+002, 7.394817e+004
6.542000e+002, 7.648674e+004
6.545000e+002, 7.752764e+004
6.548000e+002, 7.548490e+004
6.551000e+002, 7.336774e+004
6.554000e+002, 7.481307e+004
6.557000e+002, 7.322664e+004
6.560000e+002, 7.608608e+004
6.563000e+002, 7.552203e+004
6.566000e+002, 7.537561e+004
6.569000e+002, 7.632921e+004
6.572000e+002, 7.269414e+004
6.575000e+002, 7.195701e+004
6.578000e+002, 7.423209e+004
6.581000e+002, 7.197807e+004
6.584000e+002, 7.145939e+004
6.587000e+002, 7.415124e+004
6.590000e+002, 7.574631e+004
6.593000e+002, 7.654825e+004
6.596000e+002, 7.237597e+004
6.599000e+002, 7.514113e+004
6.602000e+002, 7.704356e+004
6.605000e+002, 7.437654e+004
6.608000e+002, 7.280198e+004
6.611000e+002, 7.413177e+004
6.614000e+002, 7.424405e+004
6.617000e+002, 7.748179e+004
6.620000e+002, 7.708666e+004
6.623000e+002, 7.983596e+004
6.626000e+002, 8.137068e+004
6.629000e+002, 8.338900e+004
6.632000e+002, 8.170160e+004
6.635000e+002, 7.890619e+004
6.638000e+002, 7.851350e+004
6.641000e+002, 7.803536e+004
6.644000e+002, 8.162559e+004
6.647000e+002, 8.534709e+004
6.650000e+002, 8.750405e+004
6.653000e+002, 8.588270e+004
6.656000e+002, 8.509320e+004
6.659000e+002, 8.293763e+004
6.662000e+002, 8.294210e+004
6.665000e+002, 8.463818e+004
6.668000e+002, 8.369405e+004
6.671000e+002, 8.297167e+004
6.674000e+002, 8.418902e+004
6.677000e+002, 8.609217e+004
6.680000e+002, 8.546343e+004
6.683000e+002, 8.366774e+004
6.686000e+002, 8.116902e+004
6.689000e+002, 8.195890e+004
6.692000e+002, 7.959287e+004
6.695000e+002, 7.812326e+004
6.698000e+002, 7.883859e+004
6.701000e+002, 7.856150e+004
6.704000e+002, 7.893327e+004
6.707000e+002, 8.181642e+004
6.710000e+002, 8.210531e+004
6.713000e+002, 8.479927e+004
6.716000e+002, 8.402952e+004
6.719000e+002, 8.255509e+004
6.722000e+002, 8.392299e+004
6.725000e+002, 8.312186e+004
6.728000e+002, 8.535389e+004
6.731000e+002, 8.354766e+004
6.734000e+002, 8.109063e+004
6.737000e+002, 8.078609e+004
6.740000e+002, 8.094792e+004
6.743000e+002, 8.175763e+004
6.746000e+002, 8.470713e+004
6.749000e+002, 8.561963e+004
6.752000e+002, 8.502823e+004
6.755000e+002, 8.457583e+004
6.758000e+002, 8.505150e+004
6.761000e+002, 8.437598e+004
6.764000e+002, 8.300741e+004
6.767000e+002, 8.065097e+004
6.770000e+002, 8.102010e+004
6.773000e+002, 7.985905e+004
6.776000e+002, 8.028313e+004
6.779000e+002, 8.037779e+004
6.782000e+002, 7.758411e+004
6.785000e+002, 7.889844e+004
6.788000e+002, 7.735184e+004
6.791000e+002, 7.801941e+004
6.794000e+002, 7.480016e+004
6.797000e+002, 7.274082e+004
6.800000e+002, 7.407837e+004
6.803000e+002, 7.599824e+004
6.806000e+002, 7.600645e+004
6.809000e+002, 7.619878e+004
6.812000e+002, 7.483442e+004
6.815000e+002, 7.779514e+004
6.818000e+002, 7.876422e+004
6.821000e+002, 8.021023e+004
6.824000e+002, 8.219434e+004
6.827000e+002, 8.506928e+004
6.830000e+002, 8.292472e+004
6.833000e+002, 8.073723e+004
6.836000e+002, 7.718055e+004
6.839000e+002, 7.595409e+004
6.842000e+002, 7.542482e+004
6.845000e+002, 7.694602e+004
6.848000e+002, 7.884284e+004
6.851000e+002, 7.915811e+004
6.854000e+002, 7.784316e+004
6.857000e+002, 7.646539e+004
6.860000e+002, 7.716715e+004
6.863000e+002, 7.514421e+004
6.866000e+002, 7.572534e+004
6.869000e+002, 7.523480e+004
6.872000e+002, 7.439041e+004
6.875000e+002, 7.637096e+004
6.878000e+002, 7.778633e+004
6.881000e+002, 7.803422e+004
6.884000e+002, 7.522198e+004
6.887000e+002, 7.279571e+004
6.890000e+002, 7.509926e+004
6.893000e+002, 7.529005e+004
6.896000e+002, 7.651182e+004
6.899000e+002, 7.568727e+004
6.902000e+002, 7.637127e+004
6.905000e+002, 7.497223e+004
6.908000e+002, 7.492785e+004
6.911000e+002, 7.624010e+004
6.914000e+002, 7.540139e+004
6.917000e+002, 7.414218e+004
6.920000e+002, 7.517698e+004
6.923000e+002, 7.343897e+004
6.926000e+002, 7.389434e+004
6.929000e+002, 7.381045e+004
6.932000e+002, 7.266877e+004
6.935000e+002, 7.075055e+004
6.938000e+002, 6.828646e+004
6.941000e+002, 6.955916e+004
6.944000e+002, 7.248309e+004
6.947000e+002, 7.504599e+004
6.950000e+002, 7.610766e+004
6.953000e+002, 7.388413e+004
6.956000e+002, 7.174527e+004
6.959000e+002, 7.155688e+004
6.962000e+002, 7.140120e+004
6.965000e+002, 7.185699e+004
6.968000e+002, 7.175722e+004
6.971000e+002, 7.290067e+004
6.974000e+002, 7.351802e+004
6.977000e+002, 7.031041e+004
6.980000e+002, 6.958163e+004
6.983000e+002, 7.003297e+004
6.986000e+002, 6.847408e+004
6.989000e+002, 6.879235e+004
6.992000e+002, 7.227924e+004
6.995000e+002, 7.198128e+004
6.998000e+002, 7.527409e+004
7.001000e+002, 7.774513e+004
7.004000e+002, 7.807952e+004
7.007000e+002, 7.577211e+004
7.010000e+002, 7.530400e+004
7.013000e+002, 7.432195e+004
7.016000e+002, 7.365755e+004
7.019000e+002, 7.359402e+004
7.022000e+002, 7.289447e+004
7.025000e+002, 7.330648e+004
7.028000e+002, 7.580884e+004
7.031000e+002, 7.301072e+004
7.034000e+002, 7.198313e+004
7.037000e+002, 7.024319e+004
7.040000e+002, 7.138996e+004
7.043000e+002, 7.120839e+004
7.046000e+002, 7.118250e+004
7.049000e+002, 7.239164e+004
7.052000e+002, 7.286131e+004
7.055000e+002, 7.377752e+004
7.058000e+002, 7.341631e+004
7.061000e+002, 7.170645e+004
7.064000e+002, 7.198153e+004
7.067000e+002, 7.068752e+004
7.070000e+002, 7.012520e+004
7.073000e+002, 7.149641e+004
7.076000e+002, 7.105130e+004
7.079000e+002, 7.097277e+004
7.082000e+002, 6.952937e+004
7.085000e+002, 6.849412e+004
7.088000e+002, 6.664495e+004
7.091000e+002, 6.841890e+004
7.094000e+002, 6.978938e+004
7.097000e+002, 6.861954e+004
7.100000e+002, 6.932998e+004
7.103000e+002, 6.922855e+004
7.106000e+002, 6.938195e+004
7.109000e+002, 6.616985e+004
7.112000e+002, 6.676651e+004
7.115000e+002, 6.424943e+004
7.118000e+002, 6.499852e+004
7.121000e+002, 6.471293e+004
7.124000e+002, 6.562550e+004
7.127000e+002, 6.446831e+004
7.130000e+002, 6.475088e+004
7.133000e+002, 6.494121e+004
7.136000e+002, 6.514665e+004
7.139000e+002, 6.472913e+004
7.142000e+002, 6.482897e+004
7.145000e+002, 6.386573e+004
7.148000e+002, 6.297979e+004
7.151000e+002, 6.631005e+004
7.154000e+002, 6.677795e+004
7.157000e+002, 6.473137e+004
7.160000e+002, 6.575827e+004
7.163000e+002, 6.820538e+004
7.166000e+002, 6.846531e+004
7.169000e+002, 6.721940e+004
7.172000e+002, 6.760234e+004
7.175000e+002, 6.718373e+004
7.178000e+002, 6.448522e+004
7.181000e+002, 6.374697e+004
7.184000e+002, 6.515909e+004
7.187000e+002, 6.472804e+004
7.190000e+002, 6.412014e+004
7.193000e+002, 6.487229e+004
7.196000e+002, 6.475046e+004
7.199000e+002, 6.535346e+004
7.202000e+002, 6.506071e+004
7.205000e+002, 6.453137e+004
7.208000e+002, 6.406370e+004
7.211000e+002, 6.359533e+004
7.214000e+002, 6.462859e+004
7.217000e+002, 6.297721e+004
7.220000e+002, 6.323596e+004
7.223000e+002, 6.291173e+004
7.226000e+002, 5.997705e+004
7.229000e+002, 6.080345e+004
7.232000e+002, 6.472208e+004
7.235000e+002, 6.606484e+004
7.238000e+002, 6.489206e+004
7.241000e+002, 6.277088e+004
7.244000e+002, 6.167804e+004
7.247000e+002, 6.283685e+004
7.250000e+002, 6.357141e+004
7.253000e+002, 6.460739e+004
7.256000e+002, 6.539748e+004
7.259000e+002, 6.283202e+004
7.262000e+002, 6.325443e+004
7.265000e+002, 6.304287e+004
7.268000e+002, 6.107006e+004
7.271000e+002, 6.163904e+004
7.274000e+002, 6.188575e+004
7.277000e+002, 6.138473e+004
7.280000e+002, 6.076938e+004
7.283000e+002, 6.130034e+004
7.286000e+002, 6.371794e+004
7.289000e+002, 6.412641e+004
7.292000e+002, 6.490833e+004
7.295000e+002, 6.430754e+004
7.298000e+002, 6.131437e+004
7.301000e+002, 6.043121e+004
7.304000e+002, 5.877219e+004
7.307000e+002, 5.605334e+004
7.310000e+002, 5.654408e+004
7.313000e+002, 5.954468e+004
7.316000e+002, 6.126094e+004
7.319000e+002, 6.326827e+004
7.322000e+002, 6.271783e+004
7.325000e+002, 6.354163e+004
7.328000e+002, 6.387446e+004
7.331000e+002, 6.140406e+004
7.334000e+002, 5.868426e+004
7.337000e+002, 5.684279e+004
7.340000e+002, 5.695514e+004
7.343000e+002, 5.747050e+004
7.346000e+002, 5.818685e+004
7.349000e+002, 5.726553e+004
7.352000e+002, 5.694778e+004
7.355000e+002, 5.642767e+004
7.358000e+002, 5.740270e+004
7.361000e+002, 5.752113e+004
7.364000e+002, 5.905116e+004
7.367000e+002, 5.930958e+004
7.370000e+002, 5.784471e+004
7.373000e+002, 5.785477e+004
7.376000e+002, 5.933365e+004
7.379000e+002, 6.144989e+004
7.382000e+002, 6.169234e+004
7.385000e+002, 6.080591e+004
7.388000e+002, 5.978218e+004
7.391000e+002, 5.956122e+004
7.394000e+002, 5.988925e+004
7.397000e+002, 5.784615e+004
7.400000e+002, 5.632497e+004
7.403000e+002, 5.790703e+004
7.406000e+002, 5.747505e+004
7.409000e+002, 5.698370e+004
7.412000e+002, 5.788670e+004
7.415000e+002, 5.709698e+004
7.418000e+002, 5.571875e+004
7.421000e+002, 5.592729e+004
7.424000e+002, 5.730014e+004
7.427000e+002, 5.870052e+004
7.430000e+002, 5.876642e+004
7.433000e+002, 5.888622e+004
7.436000e+002, 5.716743e+004
7.439000e+002, 5.886534e+004
7.442000e+002, 5.849410e+004
7.445000e+002, 5.815129e+004
7.448000e+002, 5.569725e+004
7.451000e+002, 5.573809e+004
7.454000e+002, 5.279602e+004
7.457000e+002, 5.529780e+004
7.460000e+002, 5.609241e+004
7.463000e+002, 5.667655e+004
7.466000e+002, 5.511548e+004
7.469000e+002, 5.802430e+004
7.472000e+002, 5.888657e+004
7.475000e+002, 5.800774e+004
7.478000e+002, 5.806141e+004
7.481000e+002, 5.782271e+004
7.484000e+002, 5.489261e+004
7.487000e+002, 5.675938e+004
7.490000e+002, 5.754171e+004
7.493000e+002, 6.040873e+004
7.496000e+002, 6.022363e+004
7.499000e+002, 5.926791e+004
7.502000e+002, 5.855851e+004
7.505000e+002, 5.847214e+004
7.508000e+002, 5.813709e+004
7.511000e+002, 5.977651e+004
7.514000e+002, 6.000812e+004
7.517000e+002, 6.152433e+004
7.520000e+002, 6.154305e+004
7.523000e+002, 6.173812e+004
7.526000e+002, 6.122885e+004
7.529000e+002, 6.100152e+004
7.532000e+002, 6.123430e+004
7.535000e+002, 6.136108e+004
7.538000e+002, 6.033434e+004
7.541000e+002, 6.007568e+004
7.544000e+002, 6.083611e+004
7.547000e+002, 5.993230e+004
7.550000e+002, 6.020032e+004
7.553000e+002, 6.341047e+004
7.556000e+002, 6.455654e+004
7.559000e+002, 6.368096e+004
7.562000e+002, 6.111602e+004
7.565000e+002, 5.994918e+004
7.568000e+002, 6.028141e+004
7.571000e+002, 6.059682e+004
7.574000e+002, 6.246733e+004
7.577000e+002, 6.315576e+004
7.580000e+002, 5.992683e+004
7.583000e+002, 5.872032e+004
7.586000e+002, 5.724166e+004
7.589000e+002, 5.719387e+004
7.592000e+002, 5.697271e+004
7.595000e+002, 5.708585e+004
7.598000e+002, 6.039735e+004
7.601000e+002, 6.021702e+004
7.604000e+002, 5.960355e+004
7.607000e+002, 6.064388e+004
7.610000e+002, 6.323576e+004
7.613000e+002, 6.435893e+004
7.616000e+002, 6.769906e+004
7.619000e+002, 7.241546e+004
7.622000e+002, 7.418898e+004
7.625000e+002, 7.559213e+004
7.628000e+002, 7.992755e+004
7.631000e+002, 8.550287e+004
7.634000e+002, 8.774036e+004
7.637000e+002, 8.928528e+004
7.640000e+002, 8.827284e+004
7.643000e+002, 8.912680e+004
7.646000e+002, 8.825098e+004
7.649000e+002, 8.548908e+004
7.652000e+002, 8.367923e+004
7.655000e+002, 8.050071e+004
7.658000e+002, 7.920975e+004
7.661000e+002, 7.637331e+004
7.664000e+002, 7.364433e+004
7.667000e+002, 7.074038e+004
7.670000e+002, 6.918288e+004
7.673000e+002, 6.641226e+004
7.676000e+002, 6.423716e+004
7.679000e+002, 6.140311e+004
7.682000e+002, 6.140009e+004
7.685000e+002, 6.152204e+004
7.688000e+002, 5.914145e+004
7.691000e+002, 5.860075e+004
7.694000e+002, 5.747609e+004
7.697000e+002, 5.819420e+004
7.700000e+002, 5.858884e+004
7.703000e+002, 5.891723e+004
7.706000e+002, 5.938892e+004
7.709000e+002, 5.833002e+004
7.712000e+002, 5.705652e+004
7.715000e+002, 5.732971e+004
7.718000e+002, 5.879684e+004
7.721000e+002, 5.795730e+004
7.724000e+002, 5.798704e+004
7.727000e+002, 5.786423e+004
7.730000e+002, 5.807400e+004
7.733000e+002, 5.734577e+004
7.736000e+002, 5.501739e+004
7.739000e+002, 5.269498e+004
7.742000e+002, 5.386463e+004
7.745000e+002, 5.569313e+004
7.748000e+002, 5.618994e+004
7.751000e+002, 5.762293e+004
7.754000e+002, 6.011009e+004
7.757000e+002, 6.139525e+004
7.760000e+002, 6.212563e+004
7.763000e+002, 6.353511e+004
7.766000e+002, 6.463571e+004
7.769000e+002, 6.503004e+004
7.772000e+002, 6.606844e+004
7.775000e+002, 6.828643e+004
7.778000e+002, 6.769239e+004
7.781000e+002, 7.017740e+004
7.784000e+002, 6.972613e+004
7.787000e+002, 6.848663e+004
7.790000e+002, 6.772759e+004
7.793000e+002, 6.655746e+004
7.796000e+002, 6.319190e+004
7.799000e+002, 6.419156e+004
7.802000e+002, 6.458864e+004
7.805000e+002, 6.313666e+004
7.808000e+002, 5.957200e+004
7.811000e+002, 6.024486e+004
7.814000e+002, 6.127230e+004
7.817000e+002, 6.144658e+004
7.820000e+002, 6.180274e+004
7.823000e+002, 6.154616e+004
7.826000e+002, 6.112349e+004
7.829000e+002, 6.204671e+004
7.832000e+002, 6.062788e+004
7.835000e+002, 5.778711e+004
7.838000e+002, 5.821064e+004
7.841000e+002, 5.824481e+004
7.844000e+002, 5.677593e+004
7.847000e+002, 5.560593e+004
7.850000e+002, 5.521745e+004
7.853000e+002, 5.650507e+004
7.856000e+002, 5.725220e+004
7.859000e+002, 5.857001e+004
7.862000e+002, 5.671273e+004
7.865000e+002, 5.784138e+004
7.868000e+002, 5.746710e+004
7.871000e+002, 5.680421e+004
7.874000e+002, 5.657024e+004
7.877000e+002, 5.818259e+004
7.880000e+002, 5.800753e+004
7.883000e+002, 5.697757e+004
7.886000e+002, 5.827239e+004
7.889000e+002, 5.821987e+004
7.892000e+002, 5.994471e+004
7.895000e+002, 6.068767e+004
7.898000e+002, 5.858151e+004
7.901000e+002, 5.704934e+004
7.904000e+002, 5.778223e+004
7.907000e+002, 5.640991e+004
7.910000e+002, 5.562923e+004
7.913000e+002, 5.492760e+004
7.916000e+002, 5.570318e+004
7.919000e+002, 5.680819e+004
7.922000e+002, 5.746440e+004
7.925000e+002, 5.890532e+004
7.928000e+002, 5.975294e+004
7.931000e+002, 5.785537e+004
7.934000e+002, 5.632898e+004
7.937000e+002, 5.594060e+004
7.940000e+002, 5.467703e+004
7.943000e+002, 5.556070e+004
7.946000e+002, 5.788945e+004
7.949000e+002, 5.929410e+004
7.952000e+002, 5.890083e+004
7.955000e+002, 5.687534e+004
7.958000e+002, 5.776862e+004
7.961000e+002, 5.723339e+004
7.964000e+002, 5.735553e+004
7.967000e+002, 5.659813e+004
7.970000e+002, 5.550672e+004
7.973000e+002, 5.644587e+004
7.976000e+002, 5.828623e+004
7.979000e+002, 5.794009e+004
7.982000e+002, 5.766440e+004
7.985000e+002, 5.514465e+004
7.988000e+002, 5.662421e+004
7.991000e+002, 5.765307e+004
7.994000e+002, 5.601624e+004
7.997000e+002, 5.610734e+004
8.000000e+002, 5.516007e+004
8.003000e+002, 5.421695e+004
8.006000e+002, 5.694741e+004
8.009000e+002, 5.749141e+004
8.012000e+002, 5.915389e+004
8.015000e+002, 5.865104e+004
8.018000e+002, 5.949227e+004
8.021000e+002, 6.019379e+004
8.024000e+002, 6.115808e+004
8.027000e+002, 6.112806e+004
8.030000e+002, 6.052323e+004
8.033000e+002, 5.889451e+004
8.036000e+002, 6.033443e+004
8.039000e+002, 6.155012e+004
8.042000e+002, 5.955509e+004
8.045000e+002, 5.789006e+004
8.048000e+002, 5.673269e+004
8.051000e+002, 5.585361e+004
8.054000e+002, 5.581239e+004
8.057000e+002, 5.349996e+004
8.060000e+002, 5.272371e+004
8.063000e+002, 5.505220e+004
8.066000e+002, 5.668923e+004
8.069000e+002, 5.667565e+004
8.072000e+002, 5.494311e+004
8.075000e+002, 5.476650e+004
8.078000e+002, 5.424980e+004
8.081000e+002, 5.449326e+004
8.084000e+002, 5.608432e+004
8.087000e+002, 5.578813e+004
8.090000e+002, 5.527650e+004
8.093000e+002, 5.564654e+004
8.096000e+002, 5.506134e+004
8.099000e+002, 5.511072e+004
8.102000e+002, 5.604456e+004
8.105000e+002, 5.493246e+004
8.108000e+002, 5.526830e+004
8.111000e+002, 5.639562e+004
8.114000e+002, 5.465435e+004
8.117000e+002, 5.302099e+004
8.120000e+002, 5.066279e+004
8.123000e+002, 4.931386e+004
8.126000e+002, 4.890339e+004
8.129000e+002, 5.088513e+004
8.132000e+002, 5.323787e+004
8.135000e+002, 5.159930e+004
8.138000e+002, 5.141368e+004
8.141000e+002, 5.194157e+004
8.144000e+002, 5.451540e+004
8.147000e+002, 5.352618e+004
8.150000e+002, 5.451988e+004
8.153000e+002, 5.289377e+004
8.156000e+002, 5.352927e+004
8.159000e+002, 5.361396e+004
8.162000e+002, 5.298714e+004
8.165000e+002, 5.273963e+004
8.168000e+002, 5.330654e+004
8.171000e+002, 5.173203e+004
8.174000e+002, 5.164830e+004
8.177000e+002, 5.278181e+004
8.180000e+002, 5.466193e+004
8.183000e+002, 5.431036e+004
8.186000e+002, 5.257331e+004
8.189000e+002, 5.278365e+004
8.192000e+002, 5.322303e+004
8.195000e+002, 5.274536e+004
8.198000e+002, 5.343089e+004
8.201000e+002, 5.232216e+004
8.204000e+002, 5.172903e+004
8.207000e+002, 5.155941e+004
8.210000e+002, 5.085931e+004
8.213000e+002, 5.409213e+004
8.216000e+002, 5.307718e+004
8.219000e+002, 5.154078e+004
8.222000e+002, 5.012280e+004
8.225000e+002, 4.929027e+004
8.228000e+002, 4.948667e+004
8.231000e+002, 5.001833e+004
8.234000e+002, 4.890994e+004
8.237000e+002, 4.960432e+004
8.240000e+002, 4.779891e+004
8.243000e+002, 4.835820e+004
8.246000e+002, 4.871734e+004
8.249000e+002, 4.828170e+004
8.252000e+002, 4.837316e+004
8.255000e+002, 5.064652e+004
8.258000e+002, 5.303330e+004
8.261000e+002, 5.401979e+004
8.264000e+002, 5.211623e+004
8.267000e+002, 5.058645e+004
8.270000e+002, 5.130696e+004
8.273000e+002, 5.184502e+004
8.276000e+002, 5.028151e+004
8.279000e+002, 4.917939e+004
8.282000e+002, 5.010245e+004
8.285000e+002, 5.024250e+004
8.288000e+002, 5.274495e+004
8.291000e+002, 5.395191e+004
8.294000e+002, 5.045802e+004
8.297000e+002, 4.900990e+004
8.300000e+002, 4.878855e+004
8.303000e+002, 4.906729e+004
8.306000e+002, 4.718286e+004
8.309000e+002, 4.694861e+004
8.312000e+002, 4.710166e+004
8.315000e+002, 4.891570e+004
8.318000e+002, 4.828783e+004
8.321000e+002, 4.853655e+004
8.324000e+002, 5.000291e+004
8.327000e+002, 5.424551e+004
8.330000e+002, 5.954255e+004
8.333000e+002, 6.026307e+004
8.336000e+002, 6.200372e+004
8.339000e+002, 6.554713e+004
8.342000e+002, 6.761414e+004
8.345000e+002, 6.853623e+004
8.348000e+002, 6.818791e+004
8.351000e+002, 6.700853e+004
8.354000e+002, 6.734391e+004
8.357000e+002, 6.716011e+004
8.360000e+002, 6.708683e+004
8.363000e+002, 6.397577e+004
8.366000e+002, 6.140250e+004
8.369000e+002, 5.765590e+004
8.372000e+002, 5.649907e+004
8.375000e+002, 5.411320e+004
8.378000e+002, 5.344518e+004
8.381000e+002, 5.225409e+004
8.384000e+002, 5.165455e+004
8.387000e+002, 5.091586e+004
8.390000e+002, 5.142445e+004
8.393000e+002, 5.045228e+004
8.396000e+002, 4.904714e+004
8.399000e+002, 4.824090e+004
8.402000e+002, 5.022795e+004
8.405000e+002, 4.968143e+004
8.408000e+002, 4.775040e+004
8.411000e+002, 4.729747e+004
8.414000e+002, 4.732670e+004
8.417000e+002, 4.726245e+004
8.420000e+002, 4.689096e+004
8.423000e+002, 4.826099e+004
8.426000e+002, 4.829259e+004
8.429000e+002, 4.753684e+004
8.432000e+002, 4.617184e+004
8.435000e+002, 4.760928e+004
8.438000e+002, 4.614634e+004
8.441000e+002, 4.407222e+004
8.444000e+002, 4.467695e+004
8.447000e+002, 4.602661e+004
8.450000e+002, 4.503508e+004
8.453000e+002, 4.582931e+004
8.456000e+002, 4.458670e+004
8.459000e+002, 4.402261e+004
8.462000e+002, 4.486431e+004
8.465000e+002, 4.572923e+004
8.468000e+002, 4.680319e+004
8.471000e+002, 4.769759e+004
8.474000e+002, 4.668643e+004
8.477000e+002, 4.555961e+004
8.480000e+002, 4.587439e+004
8.483000e+002, 4.626298e+004
8.486000e+002, 4.894380e+004
8.489000e+002, 4.917404e+004
8.492000e+002, 5.021824e+004
8.495000e+002, 4.783729e+004
8.498000e+002, 4.727494e+004
8.501000e+002, 4.853712e+004
8.504000e+002, 4.831788e+004
8.507000e+002, 4.893791e+004
8.510000e+002, 4.988068e+004
8.513000e+002, 5.221926e+004
8.516000e+002, 5.165016e+004
8.519000e+002, 5.116960e+004
8.522000e+002, 4.888829e+004
8.525000e+002, 4.889177e+004
8.528000e+002, 4.905757e+004
8.531000e+002, 4.881616e+004
8.534000e+002, 4.815198e+004
8.537000e+002, 4.959661e+004
8.540000e+002, 5.016750e+004
8.543000e+002, 4.828356e+004
8.546000e+002, 4.572896e+004
8.549000e+002, 4.632188e+004
8.552000e+002, 4.642090e+004
8.555000e+002, 4.741868e+004
8.558000e+002, 4.867418e+004
8.561000e+002, 4.743882e+004
8.564000e+002, 4.639365e+004
8.567000e+002, 4.378988e+004
8.570000e+002, 4.549344e+004
8.573000e+002, 4.781893e+004
8.576000e+002, 4.780421e+004
8.579000e+002, 4.812421e+004
8.582000e+002, 4.655202e+004
8.585000e+002, 4.696017e+004
8.588000e+002, 4.658830e+004
8.591000e+002, 4.728351e+004
8.594000e+002, 4.787091e+004
8.597000e+002, 4.801943e+004
8.600000e+002, 4.870304e+004
8.603000e+002, 4.868970e+004
8.606000e+002, 4.649181e+004
8.609000e+002, 4.580230e+004
8.612000e+002, 4.667361e+004
8.615000e+002, 4.642996e+004
8.618000e+002, 4.515458e+004
8.621000e+002, 4.467633e+004
8.624000e+002, 4.516169e+004
8.627000e+002, 4.400405e+004
8.630000e+002, 4.515206e+004
8.633000e+002, 4.577212e+004
8.636000e+002, 4.581946e+004
8.639000e+002, 4.561709e+004
8.642000e+002, 4.594740e+004
8.645000e+002, 4.660339e+004
8.648000e+002, 4.521018e+004
8.651000e+002, 4.526610e+004
8.654000e+002, 4.567860e+004
8.657000e+002, 4.631622e+004
8.660000e+002, 4.682970e+004
8.663000e+002, 4.762253e+004
8.666000e+002, 4.726668e+004
8.669000e+002, 4.872649e+004
8.672000e+002, 4.894063e+004
8.675000e+002, 4.698698e+004
8.678000e+002, 4.491567e+004
8.681000e+002, 4.452848e+004
8.684000e+002, 4.470610e+004
8.687000e+002, 4.420693e+004
8.690000e+002, 4.549154e+004
8.693000e+002, 4.576994e+004
8.696000e+002, 4.666951e+004
8.699000e+002, 4.703516e+004
8.702000e+002, 4.459338e+004
8.705000e+002, 4.430784e+004
8.708000e+002, 4.594283e+004
8.711000e+002, 4.795200e+004
8.714000e+002, 4.761836e+004
8.717000e+002, 4.543545e+004
8.720000e+002, 4.383294e+004
8.723000e+002, 4.268663e+004
8.726000e+002, 4.149846e+004
8.729000e+002, 4.325793e+004
8.732000e+002, 4.428507e+004
8.735000e+002, 4.356276e+004
8.738000e+002, 4.313663e+004
8.741000e+002, 4.348779e+004
8.744000e+002, 4.335059e+004
8.747000e+002, 4.581939e+004
8.750000e+002, 4.556150e+004
8.753000e+002, 4.532605e+004
8.756000e+002, 4.416188e+004
8.759000e+002, 4.248081e+004
8.762000e+002, 4.407025e+004
8.765000e+002, 4.394241e+004
8.768000e+002, 4.345694e+004
8.771000e+002, 4.450975e+004
8.774000e+002, 4.440589e+004
8.777000e+002, 4.339398e+004
8.780000e+002, 4.283840e+004
8.783000e+002, 4.417870e+004
8.786000e+002, 4.431465e+004
8.789000e+002, 4.342456e+004
8.792000e+002, 4.257625e+004
8.795000e+002, 4.334586e+004
8.798000e+002, 4.499680e+004
8.801000e+002, 4.323945e+004
8.804000e+002, 4.169481e+004
8.807000e+002, 4.005372e+004
8.810000e+002, 4.034771e+004
8.813000e+002, 4.174172e+004
8.816000e+002, 4.362048e+004
8.819000e+002, 4.233727e+004
8.822000e+002, 4.052592e+004
8.825000e+002, 4.130242e+004
8.828000e+002, 4.337154e+004
8.831000e+002, 4.155657e+004
8.834000e+002, 4.241386e+004
8.837000e+002, 4.193894e+004
8.840000e+002, 4.235082e+004
8.843000e+002, 4.344373e+004
8.846000e+002, 4.442562e+004
8.849000e+002, 4.262209e+004
8.852000e+002, 4.174414e+004
8.855000e+002, 4.107321e+004
8.858000e+002, 4.088670e+004
8.861000e+002, 4.233087e+004
8.864000e+002, 4.170162e+004
8.867000e+002, 4.199228e+004
8.870000e+002, 4.125515e+004
8.873000e+002, 3.936080e+004
8.876000e+002, 3.885081e+004
8.879000e+002, 4.063803e+004
8.882000e+002, 4.150179e+004
8.885000e+002, 4.037322e+004
8.888000e+002, 3.999825e+004
8.891000e+002, 3.902705e+004
8.894000e+002, 3.793650e+004
8.897000e+002, 4.042710e+004
8.900000e+002, 4.036571e+004
8.903000e+002, 3.955297e+004
8.906000e+002, 3.957550e+004
8.909000e+002, 3.861147e+004
8.912000e+002, 3.877013e+004
8.915000e+002, 3.889527e+004
8.918000e+002, 3.697852e+004
8.921000e+002, 3.871273e+004
8.924000e+002, 3.806323e+004
8.927000e+002, 3.806400e+004
8.930000e+002, 3.948420e+004
8.933000e+002, 3.902232e+004
8.936000e+002, 3.930859e+004
8.939000e+002, 3.783907e+004
8.942000e+002, 3.707996e+004
8.945000e+002, 3.749774e+004
8.948000e+002, 3.736837e+004
8.951000e+002, 3.673520e+004
8.954000e+002, 3.727369e+004
8.957000e+002, 3.610921e+004
8.960000e+002, 3.554578e+004
8.963000e+002, 3.472555e+004
8.966000e+002, 3.616718e+004
8.969000e+002, 3.868617e+004
8.972000e+002, 3.937233e+004
8.975000e+002, 3.876488e+004
8.978000e+002, 3.834821e+004
8.981000e+002, 3.924995e+004
8.984000e+002, 4.117409e+004
8.987000e+002, 3.980648e+004
8.990000e+002, 3.875800e+004
8.993000e+002, 3.876145e+004
8.996000e+002, 4.004230e+004
8.999000e+002, 3.995288e+004
9.002000e+002, 3.714605e+004
9.005000e+002, 3.725645e+004
9.008000e+002, 3.803868e+004
9.011000e+002, 3.614388e+004
9.014000e+002, 3.696141e+004
9.017000e+002, 3.619999e+004
9.020000e+002, 3.658352e+004
9.023000e+002, 3.754586e+004
9.026000e+002, 3.801798e+004
9.029000e+002, 3.660276e+004
9.032000e+002, 3.453105e+004
9.035000e+002, 3.435900e+004
9.038000e+002, 3.373932e+004
9.041000e+002, 3.487417e+004
9.044000e+002, 3.507957e+004
9.047000e+002, 3.539730e+004
9.050000e+002, 3.475309e+004
9.053000e+002, 3.598091e+004
9.056000e+002, 3.701168e+004
9.059000e+002, 3.852160e+004
9.062000e+002, 3.739232e+004
9.065000e+002, 3.554978e+004
9.068000e+002, 3.544864e+004
9.071000e+002, 3.491523e+004
9.074000e+002, 3.565713e+004
9.077000e+002, 3.573064e+004
9.080000e+002, 3.533533e+004
9.083000e+002, 3.510329e+004
9.086000e+002, 3.682632e+004
9.089000e+002, 3.678383e+004
9.092000e+002, 3.715060e+004
9.095000e+002, 3.596464e+004
9.098000e+002, 3.526723e+004
9.101000e+002, 3.424920e+004
9.104000e+002, 3.406963e+004
9.107000e+002, 3.153327e+004
9.110000e+002, 3.256150e+004
9.113000e+002, 3.287770e+004
9.116000e+002, 3.427134e+004
9.119000e+002, 3.357136e+004
9.122000e+002, 3.302854e+004
9.125000e+002, 3.171758e+004
9.128000e+002, 3.407974e+004
9.131000e+002, 3.404986e+004
9.134000e+002, 3.254780e+004
9.137000e+002, 3.428972e+004
9.140000e+002, 3.457802e+004
9.143000e+002, 3.347697e+004
9.146000e+002, 3.487920e+004
9.149000e+002, 3.534139e+004
9.152000e+002, 3.312555e+004
9.155000e+002, 3.437679e+004
9.158000e+002, 3.474152e+004
9.161000e+002, 3.454477e+004
9.164000e+002, 3.735988e+004
9.167000e+002, 3.839830e+004
9.170000e+002, 3.726176e+004
9.173000e+002, 3.599627e+004
9.176000e+002, 3.432982e+004
9.179000e+002, 3.432807e+004
9.182000e+002, 3.496150e+004
9.185000e+002, 3.459941e+004
9.188000e+002, 3.299245e+004
9.191000e+002, 3.184332e+004
9.194000e+002, 3.279904e+004
9.197000e+002, 3.123424e+004
9.200000e+002, 3.078924e+004
9.203000e+002, 3.057022e+004
9.206000e+002, 3.037100e+004
9.209000e+002, 3.110520e+004
9.212000e+002, 3.349263e+004
9.215000e+002, 3.242386e+004
9.218000e+002, 3.077228e+004
9.221000e+002, 3.195923e+004
9.224000e+002, 3.212581e+004
9.227000e+002, 3.149149e+004
9.230000e+002, 3.211152e+004
9.233000e+002, 3.208577e+004
9.236000e+002, 3.234342e+004
9.239000e+002, 3.132158e+004
9.242000e+002, 3.158944e+004
9.245000e+002, 3.184475e+004
9.248000e+002, 3.115398e+004
9.251000e+002, 3.168809e+004
9.254000e+002, 3.099720e+004
9.257000e+002, 3.051296e+004
9.260000e+002, 2.990650e+004
9.263000e+002, 3.098766e+004
9.266000e+002, 3.116904e+004
9.269000e+002, 3.070693e+004
9.272000e+002, 3.038761e+004
9.275000e+002, 3.132870e+004
9.278000e+002, 3.177178e+004
9.281000e+002, 3.188139e+004
9.284000e+002, 2.984113e+004
9.287000e+002, 2.963293e+004
9.290000e+002, 2.966608e+004
9.293000e+002, 2.969610e+004
9.296000e+002, 2.973908e+004
9.299000e+002, 3.029979e+004
9.302000e+002, 2.864247e+004
9.305000e+002, 2.905845e+004
9.308000e+002, 2.841216e+004
9.311000e+002, 2.790823e+004
9.314000e+002, 2.846581e+004
9.317000e+002, 2.809244e+004
9.320000e+002, 2.712099e+004
9.323000e+002, 2.698695e+004
9.326000e+002, 2.691515e+004
9.329000e+002, 2.702553e+004
9.332000e+002, 2.613488e+004
9.335000e+002, 2.565431e+004
9.338000e+002, 2.658767e+004
9.341000e+002, 2.786322e+004
9.344000e+002, 2.657601e+004
9.347000e+002, 2.714673e+004
9.350000e+002, 2.653004e+004
9.353000e+002, 2.642525e+004
9.356000e+002, 2.719864e+004
9.359000e+002, 2.681111e+004
9.362000e+002, 2.791651e+004
9.365000e+002, 2.645233e+004
9.368000e+002, 2.641485e+004
9.371000e+002, 2.665142e+004
9.374000e+002, 2.664130e+004
9.377000e+002, 2.697447e+004
9.380000e+002, 2.804936e+004
9.383000e+002, 2.674085e+004
9.386000e+002, 2.790254e+004
9.389000e+002, 2.853440e+004
9.392000e+002, 2.818091e+004
9.395000e+002, 2.854952e+004
9.398000e+002, 2.689716e+004
9.401000e+002, 2.668978e+004
9.404000e+002, 2.547566e+004
9.407000e+002, 2.539409e+004
9.410000e+002, 2.547050e+004
9.413000e+002, 2.690150e+004
9.416000e+002, 2.785103e+004
9.419000e+002, 2.795028e+004
9.422000e+002, 2.728267e+004
9.425000e+002, 2.738140e+004
9.428000e+002, 2.753106e+004
9.431000e+002, 2.839310e+004
9.434000e+002, 2.823707e+004
9.437000e+002, 2.770218e+004
9.440000e+002, 2.626728e+004
9.443000e+002, 2.823642e+004
9.446000e+002, 2.748079e+004
9.449000e+002, 2.684190e+004
9.452000e+002, 2.567686e+004
9.455000e+002, 2.501812e+004
9.458000e+002, 2.432177e+004
9.461000e+002, 2.438197e+004
9.464000e+002, 2.600538e+004
9.467000e+002, 2.460077e+004
9.470000e+002, 2.519430e+004
9.473000e+002, 2.367090e+004
9.476000e+002, 2.289233e+004
9.479000e+002, 2.310235e+004
9.482000e+002, 2.471501e+004
9.485000e+002, 2.433543e+004
9.488000e+002, 2.500758e+004
9.491000e+002, 2.589995e+004
9.494000e+002, 2.641436e+004
9.497000e+002, 2.608749e+004
9.500000e+002, 2.610667e+004
9.503000e+002, 2.610659e+004
9.506000e+002, 2.675214e+004
9.509000e+002, 2.630903e+004
9.512000e+002, 2.502931e+004
9.515000e+002, 2.354848e+004
9.518000e+002, 2.405346e+004
9.521000e+002, 2.477572e+004
9.524000e+002, 2.420080e+004
9.527000e+002, 2.513565e+004
9.530000e+002, 2.407913e+004
9.533000e+002, 2.370728e+004
9.536000e+002, 2.393436e+004
9.539000e+002, 2.396185e+004
9.542000e+002, 2.478323e+004
9.545000e+002, 2.479771e+004
9.548000e+002, 2.465141e+004
9.551000e+002, 2.569437e+004
9.554000e+002, 2.429213e+004
9.557000e+002, 2.339268e+004
9.560000e+002, 2.206622e+004
9.563000e+002, 2.160775e+004
9.566000e+002, 2.172940e+004
9.569000e+002, 2.173346e+004
9.572000e+002, 2.289059e+004
9.575000e+002, 2.212092e+004
9.578000e+002, 2.187881e+004
9.581000e+002, 2.220461e+004
9.584000e+002, 2.334529e+004
9.587000e+002, 2.392373e+004
9.590000e+002, 2.414822e+004
9.593000e+002, 2.356835e+004
9.596000e+002, 2.146384e+004
9.599000e+002, 2.103720e+004
9.602000e+002, 2.058627e+004
9.605000e+002, 2.163981e+004
9.608000e+002, 2.091153e+004
9.611000e+002, 1.852422e+004
9.614000e+002, 1.931890e+004
9.617000e+002, 1.979032e+004
9.620000e+002, 2.011888e+004
9.623000e+002, 2.061392e+004
9.626000e+002, 2.085639e+004
9.629000e+002, 2.105266e+004
9.632000e+002, 2.073874e+004
9.635000e+002, 2.126118e+004
9.638000e+002, 2.285742e+004
9.641000e+002, 2.304807e+004
9.644000e+002, 2.082692e+004
9.647000e+002, 2.073062e+004
9.650000e+002, 2.065507e+004
9.653000e+002, 2.119838e+004
9.656000e+002, 2.188178e+004
9.659000e+002, 2.166727e+004
9.662000e+002, 2.087114e+004
9.665000e+002, 2.032216e+004
9.668000e+002, 2.122398e+004
9.671000e+002, 2.099135e+004
9.674000e+002, 2.217848e+004
9.677000e+002, 2.211226e+004
9.680000e+002, 2.023937e+004
9.683000e+002, 1.972850e+004
9.686000e+002, 1.843705e+004
9.689000e+002, 1.851217e+004
9.692000e+002, 1.991790e+004
9.695000e+002, 1.925304e+004
9.698000e+002, 1.914702e+004
9.701000e+002, 2.047620e+004
9.704000e+002, 2.042619e+004
9.707000e+002, 1.977753e+004
9.710000e+002, 1.812333e+004
9.713000e+002, 1.811245e+004
9.716000e+002, 1.872640e+004
9.719000e+002, 1.829589e+004
9.722000e+002, 1.821814e+004
9.725000e+002, 1.809608e+004
9.728000e+002, 1.851029e+004
9.731000e+002, 1.783012e+004
9.734000e+002, 1.796420e+004
9.737000e+002, 1.702498e+004
9.740000e+002, 1.713321e+004
9.743000e+002, 1.533552e+004
9.746000e+002, 1.640828e+004
9.749000e+002, 1.775805e+004
9.752000e+002, 1.679455e+004
9.755000e+002, 1.761251e+004
9.758000e+002, 1.720916e+004
9.761000e+002, 1.732114e+004
9.764000e+002, 1.809788e+004
9.767000e+002, 1.701394e+004
9.770000e+002, 1.742759e+004
9.773000e+002, 1.786722e+004
9.776000e+002, 1.773753e+004
9.779000e+002, 1.673908e+004
9.782000e+002, 1.661783e+004
9.785000e+002, 1.817486e+004
9.788000e+002, 1.814441e+004
9.791000e+002, 1.720292e+004
9.794000e+002, 1.700669e+004
9.797000e+002, 1.744993e+004
9.800000e+002, 1.770062e+004
9.803000e+002, 1.782668e+004
9.806000e+002, 1.642644e+004
9.809000e+002, 1.593326e+004
9.812000e+002, 1.728485e+004
9.815000e+002, 1.775767e+004
9.818000e+002, 1.846146e+004
9.821000e+002, 1.749886e+004
9.824000e+002, 1.731201e+004
9.827000e+002, 1.773706e+004
9.830000e+002, 1.785266e+004
9.833000e+002, 1.755412e+004
9.836000e+002, 1.687329e+004
9.839000e+002, 1.654511e+004
9.842000e+002, 1.602976e+004
9.845000e+002, 1.462964e+004
9.848000e+002, 1.364589e+004
9.851000e+002, 1.497636e+004
9.854000e+002, 1.565604e+004
9.857000e+002, 1.526497e+004
9.860000e+002, 1.499501e+004
9.863000e+002, 1.465656e+004
9.866000e+002, 1.339689e+004
9.869000e+002, 1.398040e+004
9.872000e+002, 1.550385e+004
9.875000e+002, 1.551297e+004
9.878000e+002, 1.535395e+004
9.881000e+002, 1.507505e+004
9.884000e+002, 1.566272e+004
9.887000e+002, 1.427138e+004
9.890000e+002, 1.230168e+004
9.893000e+002, 1.135604e+004
9.896000e+002, 1.053490e+004
9.899000e+002, 1.146812e+004
9.902000e+002, 1.141575e+004
9.905000e+002, 1.201875e+004
9.908000e+002, 1.237634e+004
9.911000e+002, 1.300718e+004
9.914000e+002, 1.387786e+004
9.917000e+002, 1.403148e+004
9.920000e+002, 1.357249e+004
9.923000e+002, 1.228928e+004
9.926000e+002, 1.179564e+004
9.929000e+002, 1.235692e+004
9.932000e+002, 1.193907e+004
9.935000e+002, 1.098078e+004
9.938000e+002, 1.171325e+004
9.941000e+002, 1.283306e+004
9.944000e+002, 1.266372e+004
9.947000e+002, 1.276991e+004
9.950000e+002, 1.217394e+004
9.953000e+002, 1.050311e+004
9.956000e+002, 1.035568e+004
9.959000e+002, 1.111850e+004
9.962000e+002, 1.176270e+004
9.965000e+002, 1.212839e+004
9.968000e+002, 1.218010e+004
9.971000e+002, 1.182370e+004
9.974000e+002, 1.338155e+004
9.977000e+002, 1.294046e+004
9.980000e+002, 1.182864e+004
9.983000e+002, 1.132642e+004
9.986000e+002, 1.236832e+004
9.989000e+002, 1.213256e+004
9.992000e+002, 1.200741e+004
9.995000e+002, 1.047005e+004
9.998000e+002, 1.092834e+004
1.000100e+003, 1.040945e+004
1.000400e+003, 1.038651e+004
1.000700e+003, 9.959139e+003
1.001000e+003, 1.074043e+004
1.001300e+003, 1.098248e+004
1.001600e+003, 1.080315e+004
1.001900e+003, 1.123504e+004
1.002200e+003, 9.268213e+003
1.002500e+003, 9.006757e+003
1.002800e+003, 1.114257e+004
1.003100e+003, 1.131606e+004
1.003400e+003, 1.103532e+004
1.003700e+003, 1.258228e+004
1.004000e+003, 1.402718e+004
1.004300e+003, 1.268650e+004
1.004600e+003, 1.235202e+004
1.004900e+003, 1.233427e+004
1.005200e+003, 1.121260e+004
1.005500e+003, 1.073275e+004
1.005800e+003, 1.091480e+004
1.006100e+003, 1.188832e+004
1.006400e+003, 1.290413e+004
1.006700e+003, 1.227984e+004
1.007000e+003, 1.128937e+004
1.007300e+003, 1.048484e+004
1.007600e+003, 1.061378e+004
1.007900e+003, 1.005377e+004
1.008200e+003, 1.024260e+004
1.008500e+003, 9.362771e+003
1.008800e+003, 9.198634e+003
1.009100e+003, 9.963810e+003
1.009400e+003, 1.045327e+004
1.009700e+003, 1.143921e+004
1.010000e+003, 1.209573e+004
1.010300e+003, 1.179113e+004
1.010600e+003, 1.159387e+004
1.010900e+003, 9.888614e+003
1.011200e+003, 1.065639e+004
1.011500e+003, 9.705526e+003
1.011800e+003, 9.453242e+003
1.012100e+003, 1.031049e+004
1.012400e+003, 1.036305e+004
1.012700e+003, 9.716913e+003
1.013000e+003, 1.010737e+004
1.013300e+003, 1.109923e+004
1.013600e+003, 1.042708e+004
1.013900e+003, 9.025406e+003
1.014200e+003, 7.103558e+003
1.014500e+003, 8.741086e+003
1.014800e+003, 8.902211e+003
1.015100e+003, 9.878869e+003
1.015400e+003, 1.007554e+004
1.015700e+003, 9.588114e+003
1.016000e+003, 7.787905e+003
1.016300e+003, 8.449636e+003
1.016600e+003, 8.471182e+003
1.016900e+003, 9.316996e+003
1.017200e+003, 8.813845e+003
1.017500e+003, 7.919415e+003
1.017800e+003, 7.993410e+003
1.018100e+003, 7.364502e+003
1.018400e+003, 8.479457e+003
1.018700e+003, 8.792587e+003
1.019000e+003, 9.163080e+003
1.019300e+003, 9.890342e+003
1.019600e+003, 1.032159e+004
1.019900e+003, 1.022130e+004
1.020200e+003, 1.077718e+004
1.020500e+003, 9.914833e+003
1.020800e+003, 9.044864e+003
1.021100e+003, 8.121383e+003
1.021400e+003, 7.441797e+003
1.021700e+003, 8.072981e+003
1.022000e+003, 9.438606e+003
1.022300e+003, 8.354315e+003
1.022600e+003, 7.768934e+003
1.022900e+003, 7.818463e+003
1.023200e+003, 6.350873e+003
1.023500e+003, 8.270880e+003
1.023800e+003, 8.008018e+003
1.024100e+003, 7.730926e+003
1.024400e+003, 7.970870e+003
1.024700e+003, 5.964038e+003
1.025000e+003, 5.447414e+003
1.025300e+003, 6.081202e+003
1.025600e+003, 5.348729e+003
1.025900e+003, 5.491746e+003
1.026200e+003, 4.150972e+003
1.026500e+003, 3.932265e+003
1.026800e+003, 5.387002e+003
1.027100e+003, 4.991838e+003
1.027400e+003, 5.748790e+003
1.027700e+003, 5.668310e+003
1.028000e+003, 6.079210e+003
1.028300e+003, 5.789117e+003
1.028600e+003, 6.149702e+003
1.028900e+003, 5.849386e+003
1.029200e+003, 7.170655e+003
1.029500e+003, 6.185087e+003
1.029800e+003, 5.232400e+003
1.030100e+003, 4.695657e+003
1.030400e+003, 4.790765e+003
1.030700e+003, 4.458926e+003
1.031000e+003, 4.155953e+003
1.031300e+003, 5.020081e+003
1.031600e+003, 7.120981e+003
1.031900e+003, 6.489216e+003
1.032200e+003, 5.200725e+003
1.032500e+003, 4.897771e+003
1.032800e+003, 4.953122e+003
1.033100e+003, 5.459121e+003
1.033400e+003, 4.186455e+003
1.033700e+003, 4.868609e+003
1.034000e+003, 5.627271e+003
1.034300e+003, 4.919924e+003
1.034600e+003, 3.581320e+003
1.034900e+003, 3.531427e+003
1.035200e+003, 4.379745e+003
1.035500e+003, 4.782024e+003
1.035800e+003, 3.932061e+003
1.036100e+003, 3.342762e+003
1.036400e+003, 4.095362e+003
1.036700e+003, 4.692408e+003
1.037000e+003, 4.420150e+003
1.037300e+003, 4.076697e+003
1.037600e+003, 2.954831e+003
1.037900e+003, 3.280645e+003
1.038200e+003, 3.809109e+003
1.038500e+003, 2.793128e+003
1.038800e+003, 3.663781e+003
1.039100e+003, 3.937333e+003
1.039400e+003, 4.147035e+003
1.039700e+003, 4.584372e+003
1.040000e+003, 3.413764e+003
1.040300e+003, 3.402665e+003
1.040600e+003, 3.333716e+003
1.040900e+003, 3.182855e+003
1.041200e+003, 3.843847e+003
1.041500e+003, 3.150365e+003
1.041800e+003, 2.695641e+003
1.042100e+003, 2.947037e+003
1.042400e+003, 2.534630e+003
1.042700e+003, 2.300249e+003
1.043000e+003, 1.014596e+003
1.043300e+003, 8.040313e+002
1.043600e+003, 1.733930e+003
1.043900e+003, 2.960667e+003
1.044200e+003, 3.948710e+003
1.044500e+003, 4.718718e+003
1.044800e+003, 3.048923e+003
1.045100e+003, 3.787857e+003
1.045400e+003, 4.666927e+003
1.045700e+003, 3.491133e+003
1.046000e+003, 2.250833e+003
1.046300e+003, 1.713560e+003
1.046600e+003, 3.072032e+003
1.046900e+003, 2.654625e+003
1.047200e+003, 2.797650e+003
1.047500e+003, 2.827952e+003
1.047800e+003, 2.871905e+003
1.048100e+003, 1.826136e+003
1.048400e+003, 1.390268e+003
1.048700e+003, 2.387399e+002
1.049000e+003, 4.753567e+001
1.049300e+003, 3.136554e+002
1.049600e+003, 4.900523e+002
1.049900e+003, 1.639695e+003
1.050200e+003, 9.642874e+002
1.050500e+003, 1.235610e+003
1.050800e+003, 9.783822e+002
1.051100e+003, 9.069943e+002
1.051400e+003, 1.766681e+003
1.051700e+003, 2.170739e+003
1.052000e+003, 2.378106e+003
#ENDOFDATA   : End Of Data and File