#FORMAT	     : EMSA/MAS Spectral Data File
#VERSION     : 1.0
#TITLE       : oxygen_edge
#DATE        : 
#TIME        : 
#OWNER       : 
#NPOINTS     : 2036
#NCOLUMNS    : 1
#XUNITS      : eV
#YUNITS      : Counts
#DATATYPE    : XY
#XPERCHAN    : 3.000000e-001
#OFFSET      : 4.436000e+002
#SIGNALTYPE  : ELS
#BEAMKV      : 300000.000000
#MAGCAM      : 640000.000000
#EMISSION    : 0.000000
#PROBECUR    : 0.000000
#BEAMDIAM    : 0.000000
#SPECTRUM    : Spectral Data Starts Here
4.436000e+002, 0.000000e+000
4.439000e+002, 0.000000e+000
4.442000e+002, 0.000000e+000
4.445000e+002, 0.000000e+000
4.448000e+002, 0.000000e+000
4.451000e+002, 0.000000e+000
4.454000e+002, 0.000000e+000
4.457000e+002, 0.000000e+000
4.460000e+002, 0.000000e+000
4.463000e+002, 0.000000e+000
4.466000e+002, 0.000000e+000
4.469000e+002, 0.000000e+000
4.472000e+002, 0.000000e+000
4.475000e+002, 0.000000e+000
4.478000e+002, 0.000000e+000
4.481000e+002, 0.000000e+000
4.484000e+002, 0.000000e+000
4.487000e+002, 0.000000e+000
4.490000e+002, 0.000000e+000
4.493000e+002, 0.000000e+000
4.496000e+002, 0.000000e+000
4.499000e+002, 0.000000e+000
4.502000e+002, 0.000000e+000
4.505000e+002, 0.000000e+000
4.508000e+002, 0.000000e+000
4.511000e+002, 0.000000e+000
4.514000e+002, 0.000000e+000
4.517000e+002, 0.000000e+000
4.520000e+002, 0.000000e+000
4.523000e+002, 0.000000e+000
4.526000e+002, 0.000000e+000
4.529000e+002, 0.000000e+000
4.532000e+002, 0.000000e+000
4.535000e+002, 0.000000e+000
4.538000e+002, 0.000000e+000
4.541000e+002, 0.000000e+000
4.544000e+002, 0.000000e+000
4.547000e+002, 0.000000e+000
4.550000e+002, 0.000000e+000
4.553000e+002, 0.000000e+000
4.556000e+002, 0.000000e+000
4.559000e+002, 0.000000e+000
4.562000e+002, 0.000000e+000
4.565000e+002, 0.000000e+000
4.568000e+002, 0.000000e+000
4.571000e+002, 0.000000e+000
4.574000e+002, 0.000000e+000
4.577000e+002, 0.000000e+000
4.580000e+002, 0.000000e+000
4.583000e+002, 0.000000e+000
4.586000e+002, 0.000000e+000
4.589000e+002, 0.000000e+000
4.592000e+002, 0.000000e+000
4.595000e+002, 0.000000e+000
4.598000e+002, 0.000000e+000
4.601000e+002, 0.000000e+000
4.604000e+002, 0.000000e+000
4.607000e+002, 0.000000e+000
4.610000e+002, 0.000000e+000
4.613000e+002, 0.000000e+000
4.616000e+002, 0.000000e+000
4.619000e+002, 0.000000e+000
4.622000e+002, 0.000000e+000
4.625000e+002, 0.000000e+000
4.628000e+002, 0.000000e+000
4.631000e+002, 0.000000e+000
4.634000e+002, 0.000000e+000
4.637000e+002, 0.000000e+000
4.640000e+002, 0.000000e+000
4.643000e+002, 0.000000e+000
4.646000e+002, 0.000000e+000
4.649000e+002, 0.000000e+000
4.652000e+002, 0.000000e+000
4.655000e+002, 0.000000e+000
4.658000e+002, 0.000000e+000
4.661000e+002, 0.000000e+000
4.664000e+002, 0.000000e+000
4.667000e+002, 0.000000e+000
4.670000e+002, 0.000000e+000
4.673000e+002, 0.000000e+000
4.676000e+002, 0.000000e+000
4.679000e+002, 0.000000e+000
4.682000e+002, 0.000000e+000
4.685000e+002, 0.000000e+000
4.688000e+002, 0.000000e+000
4.691000e+002, 0.000000e+000
4.694000e+002, 0.000000e+000
4.697000e+002, 0.000000e+000
4.700000e+002, 0.000000e+000
4.703000e+002, 0.000000e+000
4.706000e+002, 0.000000e+000
4.709000e+002, 0.000000e+000
4.712000e+002, 0.000000e+000
4.715000e+002, 0.000000e+000
4.718000e+002, 0.000000e+000
4.721000e+002, 0.000000e+000
4.724000e+002, 0.000000e+000
4.727000e+002, 0.000000e+000
4.730000e+002, 0.000000e+000
4.733000e+002, 0.000000e+000
4.736000e+002, 0.000000e+000
4.739000e+002, 0.000000e+000
4.742000e+002, 0.000000e+000
4.745000e+002, 0.000000e+000
4.748000e+002, 0.000000e+000
4.751000e+002, 0.000000e+000
4.754000e+002, 0.000000e+000
4.757000e+002, 0.000000e+000
4.760000e+002, 0.000000e+000
4.763000e+002, 0.000000e+000
4.766000e+002, 0.000000e+000
4.769000e+002, 0.000000e+000
4.772000e+002, 0.000000e+000
4.775000e+002, 0.000000e+000
4.778000e+002, 0.000000e+000
4.781000e+002, 0.000000e+000
4.784000e+002, 0.000000e+000
4.787000e+002, 0.000000e+000
4.790000e+002, 0.000000e+000
4.793000e+002, 0.000000e+000
4.796000e+002, 0.000000e+000
4.799000e+002, 0.000000e+000
4.802000e+002, 0.000000e+000
4.805000e+002, 0.000000e+000
4.808000e+002, 0.000000e+000
4.811000e+002, 0.000000e+000
4.814000e+002, 0.000000e+000
4.817000e+002, 0.000000e+000
4.820000e+002, 0.000000e+000
4.823000e+002, 0.000000e+000
4.826000e+002, 0.000000e+000
4.829000e+002, 0.000000e+000
4.832000e+002, 0.000000e+000
4.835000e+002, 0.000000e+000
4.838000e+002, 0.000000e+000
4.841000e+002, 0.000000e+000
4.844000e+002, 0.000000e+000
4.847000e+002, 0.000000e+000
4.850000e+002, 0.000000e+000
4.853000e+002, 0.000000e+000
4.856000e+002, 0.000000e+000
4.859000e+002, 0.000000e+000
4.862000e+002, 0.000000e+000
4.865000e+002, 0.000000e+000
4.868000e+002, 0.000000e+000
4.871000e+002, 0.000000e+000
4.874000e+002, 0.000000e+000
4.877000e+002, 0.000000e+000
4.880000e+002, 0.000000e+000
4.883000e+002, 0.000000e+000
4.886000e+002, 0.000000e+000
4.889000e+002, 0.000000e+000
4.892000e+002, 7.690936e+002
4.895000e+002, -9.485053e+002
4.898000e+002, -1.521535e+003
4.901000e+002, 2.452979e+003
4.904000e+002, 2.386762e+003
4.907000e+002, 4.753319e+003
4.910000e+002, 5.340970e+003
4.913000e+002, 3.460938e+003
4.916000e+002, 2.800385e+003
4.919000e+002, 4.020881e+003
4.922000e+002, 3.152493e+003
4.925000e+002, -2.776795e+002
4.928000e+002, 8.350262e+002
4.931000e+002, -8.262906e+002
4.934000e+002, -3.972806e+002
4.937000e+002, 1.837249e+003
4.940000e+002, -1.487260e+002
4.943000e+002, -1.683014e+003
4.946000e+002, -7.824830e+002
4.949000e+002, -1.979720e+002
4.952000e+002, 1.643587e+003
4.955000e+002, 2.330357e+003
4.958000e+002, 1.357092e+003
4.961000e+002, 1.417392e+003
4.964000e+002, 1.152044e+003
4.967000e+002, 9.524598e+002
4.970000e+002, -8.063667e+001
4.973000e+002, -1.852834e+003
4.976000e+002, -3.956282e+003
4.979000e+002, -4.490788e+003
4.982000e+002, -5.686723e+003
4.985000e+002, -3.691048e+003
4.988000e+002, -4.327854e+003
4.991000e+002, -7.377445e+003
4.994000e+002, -7.406444e+003
4.997000e+002, -4.529031e+003
5.000000e+002, -6.854107e+003
5.003000e+002, -5.129262e+003
5.006000e+002, -4.474490e+003
5.009000e+002, -3.020347e+003
5.012000e+002, -3.783423e+003
5.015000e+002, -3.382619e+003
5.018000e+002, -1.771929e+003
5.021000e+002, 1.198083e+002
5.024000e+002, 4.421287e+002
5.027000e+002, 1.440569e+003
5.030000e+002, 3.000717e+002
5.033000e+002, 1.129704e+003
5.036000e+002, -1.156590e+003
5.039000e+002, 3.301613e+002
5.042000e+002, 2.777246e+003
5.045000e+002, 2.014179e+002
5.048000e+002, 3.937308e+003
5.051000e+002, 6.107889e+003
5.054000e+002, 2.604104e+003
5.057000e+002, 1.881490e+003
5.060000e+002, 1.489832e+003
5.063000e+002, 2.900411e+002
5.066000e+002, 2.181373e+003
5.069000e+002, 3.040488e+003
5.072000e+002, 1.370455e+001
5.075000e+002, 5.255892e+002
5.078000e+002, 1.399397e+003
5.081000e+002, 1.571883e+003
5.084000e+002, 4.423636e+002
5.087000e+002, 1.887251e+003
5.090000e+002, 5.703304e+002
5.093000e+002, 9.079821e+002
5.096000e+002, 2.744835e+003
5.099000e+002, 3.319646e+003
5.102000e+002, 3.867354e+003
5.105000e+002, 6.037873e+003
5.108000e+002, 5.853236e+003
5.111000e+002, 7.373951e+003
5.114000e+002, 9.183707e+003
5.117000e+002, 5.996542e+003
5.120000e+002, 4.222147e+003
5.123000e+002, 5.216059e+003
5.126000e+002, 7.133844e+003
5.129000e+002, 6.921163e+003
5.132000e+002, 5.470927e+003
5.135000e+002, 5.768608e+003
5.138000e+002, 8.482775e+003
5.141000e+002, 8.580714e+003
5.144000e+002, 1.062005e+004
5.147000e+002, 1.354411e+004
5.150000e+002, 2.056511e+004
5.153000e+002, 2.823883e+004
5.156000e+002, 3.448622e+004
5.159000e+002, 4.370194e+004
5.162000e+002, 5.348468e+004
5.165000e+002, 6.870470e+004
5.168000e+002, 8.343387e+004
5.171000e+002, 9.674682e+004
5.174000e+002, 1.077103e+005
5.177000e+002, 1.192895e+005
5.180000e+002, 1.217225e+005
5.183000e+002, 1.232883e+005
5.186000e+002, 1.202414e+005
5.189000e+002, 1.123762e+005
5.192000e+002, 1.049459e+005
5.195000e+002, 9.865228e+004
5.198000e+002, 9.252508e+004
5.201000e+002, 8.426773e+004
5.204000e+002, 7.641259e+004
5.207000e+002, 7.266581e+004
5.210000e+002, 6.842856e+004
5.213000e+002, 6.246025e+004
5.216000e+002, 5.657691e+004
5.219000e+002, 5.195843e+004
5.222000e+002, 4.993189e+004
5.225000e+002, 4.970596e+004
5.228000e+002, 5.140527e+004
5.231000e+002, 5.355929e+004
5.234000e+002, 5.469290e+004
5.237000e+002, 6.165655e+004
5.240000e+002, 6.872420e+004
5.243000e+002, 7.397657e+004
5.246000e+002, 8.199671e+004
5.249000e+002, 9.182718e+004
5.252000e+002, 1.031569e+005
5.255000e+002, 1.146021e+005
5.258000e+002, 1.222600e+005
5.261000e+002, 1.266696e+005
5.264000e+002, 1.324822e+005
5.267000e+002, 1.405475e+005
5.270000e+002, 1.459141e+005
5.273000e+002, 1.551285e+005
5.276000e+002, 1.651565e+005
5.279000e+002, 1.713311e+005
5.282000e+002, 1.792659e+005
5.285000e+002, 1.832114e+005
5.288000e+002, 1.895476e+005
5.291000e+002, 1.937923e+005
5.294000e+002, 1.958658e+005
5.297000e+002, 1.990680e+005
5.300000e+002, 1.957623e+005
5.303000e+002, 1.917057e+005
5.306000e+002, 1.899643e+005
5.309000e+002, 1.856674e+005
5.312000e+002, 1.815434e+005
5.315000e+002, 1.786015e+005
5.318000e+002, 1.718122e+005
5.321000e+002, 1.709867e+005
5.324000e+002, 1.623906e+005
5.327000e+002, 1.555433e+005
5.330000e+002, 1.548307e+005
5.333000e+002, 1.558188e+005
5.336000e+002, 1.548060e+005
5.339000e+002, 1.518457e+005
5.342000e+002, 1.473585e+005
5.345000e+002, 1.457431e+005
5.348000e+002, 1.435110e+005
5.351000e+002, 1.432267e+005
5.354000e+002, 1.423496e+005
5.357000e+002, 1.380293e+005
5.360000e+002, 1.357676e+005
5.363000e+002, 1.310986e+005
5.366000e+002, 1.309510e+005
5.369000e+002, 1.291087e+005
5.372000e+002, 1.247785e+005
5.375000e+002, 1.214211e+005
5.378000e+002, 1.198181e+005
5.381000e+002, 1.185768e+005
5.384000e+002, 1.198596e+005
5.387000e+002, 1.213129e+005
5.390000e+002, 1.141640e+005
5.393000e+002, 1.097677e+005
5.396000e+002, 1.112343e+005
5.399000e+002, 1.094439e+005
5.402000e+002, 1.077759e+005
5.405000e+002, 1.080908e+005
5.408000e+002, 1.105723e+005
5.411000e+002, 1.072729e+005
5.414000e+002, 1.065069e+005
5.417000e+002, 1.122083e+005
5.420000e+002, 1.126322e+005
5.423000e+002, 1.129559e+005
5.426000e+002, 1.144063e+005
5.429000e+002, 1.130773e+005
5.432000e+002, 1.135788e+005
5.435000e+002, 1.146276e+005
5.438000e+002, 1.156971e+005
5.441000e+002, 1.163641e+005
5.444000e+002, 1.173962e+005
5.447000e+002, 1.197578e+005
5.450000e+002, 1.214217e+005
5.453000e+002, 1.245611e+005
5.456000e+002, 1.281082e+005
5.459000e+002, 1.276612e+005
5.462000e+002, 1.270192e+005
5.465000e+002, 1.301695e+005
5.468000e+002, 1.321700e+005
5.471000e+002, 1.341611e+005
5.474000e+002, 1.331048e+005
5.477000e+002, 1.367264e+005
5.480000e+002, 1.394612e+005
5.483000e+002, 1.401511e+005
5.486000e+002, 1.421850e+005
5.489000e+002, 1.476476e+005
5.492000e+002, 1.489862e+005
5.495000e+002, 1.499747e+005
5.498000e+002, 1.556128e+005
5.501000e+002, 1.584734e+005
5.504000e+002, 1.613557e+005
5.507000e+002, 1.634158e+005
5.510000e+002, 1.657315e+005
5.513000e+002, 1.680822e+005
5.516000e+002, 1.690623e+005
5.519000e+002, 1.692281e+005
5.522000e+002, 1.693333e+005
5.525000e+002, 1.668175e+005
5.528000e+002, 1.691992e+005
5.531000e+002, 1.690268e+005
5.534000e+002, 1.717659e+005
5.537000e+002, 1.759753e+005
5.540000e+002, 1.741860e+005
5.543000e+002, 1.744977e+005
5.546000e+002, 1.764111e+005
5.549000e+002, 1.730442e+005
5.552000e+002, 1.699138e+005
5.555000e+002, 1.718406e+005
5.558000e+002, 1.717544e+005
5.561000e+002, 1.748331e+005
5.564000e+002, 1.728740e+005
5.567000e+002, 1.734644e+005
5.570000e+002, 1.727592e+005
5.573000e+002, 1.724743e+005
5.576000e+002, 1.713688e+005
5.579000e+002, 1.712531e+005
5.582000e+002, 1.691504e+005
5.585000e+002, 1.690282e+005
5.588000e+002, 1.676706e+005
5.591000e+002, 1.667115e+005
5.594000e+002, 1.672966e+005
5.597000e+002, 1.636811e+005
5.600000e+002, 1.632150e+005
5.603000e+002, 1.643139e+005
5.606000e+002, 1.623142e+005
5.609000e+002, 1.642524e+005
5.612000e+002, 1.649110e+005
5.615000e+002, 1.660949e+005
5.618000e+002, 1.680543e+005
5.621000e+002, 1.670415e+005
5.624000e+002, 1.652705e+005
5.627000e+002, 1.644764e+005
5.630000e+002, 1.650032e+005
5.633000e+002, 1.659318e+005
5.636000e+002, 1.662706e+005
5.639000e+002, 1.661486e+005
5.642000e+002, 1.680652e+005
5.645000e+002, 1.657215e+005
5.648000e+002, 1.649455e+005
5.651000e+002, 1.639052e+005
5.654000e+002, 1.648788e+005
5.657000e+002, 1.632283e+005
5.660000e+002, 1.624640e+005
5.663000e+002, 1.589261e+005
5.666000e+002, 1.580218e+005
5.669000e+002, 1.591134e+005
5.672000e+002, 1.596275e+005
5.675000e+002, 1.628438e+005
5.678000e+002, 1.614498e+005
5.681000e+002, 1.610162e+005
5.684000e+002, 1.601962e+005
5.687000e+002, 1.634565e+005
5.690000e+002, 1.645470e+005
5.693000e+002, 1.623809e+005
5.696000e+002, 1.607446e+005
5.699000e+002, 1.586406e+005
5.702000e+002, 1.558370e+005
5.705000e+002, 1.590347e+005
5.708000e+002, 1.604351e+005
5.711000e+002, 1.614876e+005
5.714000e+002, 1.607678e+005
5.717000e+002, 1.571649e+005
5.720000e+002, 1.579542e+005
5.723000e+002, 1.586805e+005
5.726000e+002, 1.606192e+005
5.729000e+002, 1.589258e+005
5.732000e+002, 1.590917e+005
5.735000e+002, 1.621932e+005
5.738000e+002, 1.638408e+005
5.741000e+002, 1.628409e+005
5.744000e+002, 1.641923e+005
5.747000e+002, 1.605033e+005
5.750000e+002, 1.591264e+005
5.753000e+002, 1.588420e+005
5.756000e+002, 1.595175e+005
5.759000e+002, 1.573197e+005
5.762000e+002, 1.576769e+005
5.765000e+002, 1.578164e+005
5.768000e+002, 1.609486e+005
5.771000e+002, 1.639334e+005
5.774000e+002, 1.623456e+005
5.777000e+002, 1.617717e+005
5.780000e+002, 1.649068e+005
5.783000e+002, 1.653380e+005
5.786000e+002, 1.642303e+005
5.789000e+002, 1.623236e+005
5.792000e+002, 1.656774e+005
5.795000e+002, 1.652007e+005
5.798000e+002, 1.663314e+005
5.801000e+002, 1.693865e+005
5.804000e+002, 1.687864e+005
5.807000e+002, 1.678446e+005
5.810000e+002, 1.712484e+005
5.813000e+002, 1.688144e+005
5.816000e+002, 1.691754e+005
5.819000e+002, 1.677170e+005
5.822000e+002, 1.665604e+005
5.825000e+002, 1.671116e+005
5.828000e+002, 1.690728e+005
5.831000e+002, 1.668776e+005
5.834000e+002, 1.666895e+005
5.837000e+002, 1.660104e+005
5.840000e+002, 1.659892e+005
5.843000e+002, 1.682202e+005
5.846000e+002, 1.684144e+005
5.849000e+002, 1.709127e+005
5.852000e+002, 1.673998e+005
5.855000e+002, 1.668140e+005
5.858000e+002, 1.669839e+005
5.861000e+002, 1.658358e+005
5.864000e+002, 1.670271e+005
5.867000e+002, 1.684079e+005
5.870000e+002, 1.661130e+005
5.873000e+002, 1.678082e+005
5.876000e+002, 1.717297e+005
5.879000e+002, 1.703632e+005
5.882000e+002, 1.667625e+005
5.885000e+002, 1.651188e+005
5.888000e+002, 1.655406e+005
5.891000e+002, 1.644009e+005
5.894000e+002, 1.676501e+005
5.897000e+002, 1.678933e+005
5.900000e+002, 1.660582e+005
5.903000e+002, 1.678953e+005
5.906000e+002, 1.686795e+005
5.909000e+002, 1.698982e+005
5.912000e+002, 1.722408e+005
5.915000e+002, 1.687697e+005
5.918000e+002, 1.671482e+005
5.921000e+002, 1.668328e+005
5.924000e+002, 1.700939e+005
5.927000e+002, 1.689352e+005
5.930000e+002, 1.687715e+005
5.933000e+002, 1.690635e+005
5.936000e+002, 1.709516e+005
5.939000e+002, 1.722852e+005
5.942000e+002, 1.691354e+005
5.945000e+002, 1.717697e+005
5.948000e+002, 1.711129e+005
5.951000e+002, 1.713206e+005
5.954000e+002, 1.711515e+005
5.957000e+002, 1.696412e+005
5.960000e+002, 1.687789e+005
5.963000e+002, 1.697201e+005
5.966000e+002, 1.703242e+005
5.969000e+002, 1.706481e+005
5.972000e+002, 1.713119e+005
5.975000e+002, 1.704300e+005
5.978000e+002, 1.713100e+005
5.981000e+002, 1.682808e+005
5.984000e+002, 1.702774e+005
5.987000e+002, 1.732648e+005
5.990000e+002, 1.727386e+005
5.993000e+002, 1.713556e+005
5.996000e+002, 1.705361e+005
5.999000e+002, 1.707584e+005
6.002000e+002, 1.682868e+005
6.005000e+002, 1.671012e+005
6.008000e+002, 1.680831e+005
6.011000e+002, 1.664052e+005
6.014000e+002, 1.660702e+005
6.017000e+002, 1.654487e+005
6.020000e+002, 1.639967e+005
6.023000e+002, 1.665149e+005
6.026000e+002, 1.688411e+005
6.029000e+002, 1.669031e+005
6.032000e+002, 1.634737e+005
6.035000e+002, 1.637262e+005
6.038000e+002, 1.624624e+005
6.041000e+002, 1.634488e+005
6.044000e+002, 1.643498e+005
6.047000e+002, 1.667815e+005
6.050000e+002, 1.653892e+005
6.053000e+002, 1.665349e+005
6.056000e+002, 1.676219e+005
6.059000e+002, 1.675960e+005
6.062000e+002, 1.684677e+005
6.065000e+002, 1.719590e+005
6.068000e+002, 1.688273e+005
6.071000e+002, 1.663589e+005
6.074000e+002, 1.649525e+005
6.077000e+002, 1.650955e+005
6.080000e+002, 1.640347e+005
6.083000e+002, 1.634167e+005
6.086000e+002, 1.625018e+005
6.089000e+002, 1.632168e+005
6.092000e+002, 1.605738e+005
6.095000e+002, 1.624217e+005
6.098000e+002, 1.617613e+005
6.101000e+002, 1.604869e+005
6.104000e+002, 1.604734e+005
6.107000e+002, 1.608766e+005
6.110000e+002, 1.625030e+005
6.113000e+002, 1.654834e+005
6.116000e+002, 1.632031e+005
6.119000e+002, 1.627018e+005
6.122000e+002, 1.620950e+005
6.125000e+002, 1.622496e+005
6.128000e+002, 1.622885e+005
6.131000e+002, 1.592153e+005
6.134000e+002, 1.630616e+005
6.137000e+002, 1.633518e+005
6.140000e+002, 1.625309e+005
6.143000e+002, 1.632102e+005
6.146000e+002, 1.639546e+005
6.149000e+002, 1.643504e+005
6.152000e+002, 1.651336e+005
6.155000e+002, 1.663891e+005
6.158000e+002, 1.672500e+005
6.161000e+002, 1.671949e+005
6.164000e+002, 1.642418e+005
6.167000e+002, 1.643392e+005
6.170000e+002, 1.636675e+005
6.173000e+002, 1.617803e+005
6.176000e+002, 1.625160e+005
6.179000e+002, 1.636558e+005
6.182000e+002, 1.619013e+005
6.185000e+002, 1.628658e+005
6.188000e+002, 1.630108e+005
6.191000e+002, 1.651768e+005
6.194000e+002, 1.673145e+005
6.197000e+002, 1.674414e+005
6.200000e+002, 1.693643e+005
6.203000e+002, 1.689427e+005
6.206000e+002, 1.658577e+005
6.209000e+002, 1.668199e+005
6.212000e+002, 1.647142e+005
6.215000e+002, 1.642821e+005
6.218000e+002, 1.644763e+005
6.221000e+002, 1.625907e+005
6.224000e+002, 1.627808e+005
6.227000e+002, 1.635549e+005
6.230000e+002, 1.636792e+005
6.233000e+002, 1.636942e+005
6.236000e+002, 1.632467e+005
6.239000e+002, 1.631302e+005
6.242000e+002, 1.650178e+005
6.245000e+002, 1.659980e+005
6.248000e+002, 1.704666e+005
6.251000e+002, 1.738474e+005
6.254000e+002, 1.767196e+005
6.257000e+002, 1.829794e+005
6.260000e+002, 1.887523e+005
6.263000e+002, 1.978103e+005
6.266000e+002, 2.070320e+005
6.269000e+002, 2.211396e+005
6.272000e+002, 2.405153e+005
6.275000e+002, 2.583588e+005
6.278000e+002, 2.758153e+005
6.281000e+002, 2.946320e+005
6.284000e+002, 3.108954e+005
6.287000e+002, 3.259033e+005
6.290000e+002, 3.388129e+005
6.293000e+002, 3.542868e+005
6.296000e+002, 3.706503e+005
6.299000e+002, 3.834993e+005
6.302000e+002, 3.947521e+005
6.305000e+002, 3.949587e+005
6.308000e+002, 3.846169e+005
6.311000e+002, 3.686671e+005
6.314000e+002, 3.557445e+005
6.317000e+002, 3.390960e+005
6.320000e+002, 3.240720e+005
6.323000e+002, 3.048485e+005
6.326000e+002, 2.874259e+005
6.329000e+002, 2.740046e+005
6.332000e+002, 2.618754e+005
6.335000e+002, 2.500121e+005
6.338000e+002, 2.409414e+005
6.341000e+002, 2.359088e+005
6.344000e+002, 2.332344e+005
6.347000e+002, 2.309801e+005
6.350000e+002, 2.276966e+005
6.353000e+002, 2.228132e+005
6.356000e+002, 2.181707e+005
6.359000e+002, 2.173476e+005
6.362000e+002, 2.164733e+005
6.365000e+002, 2.187390e+005
6.368000e+002, 2.221115e+005
6.371000e+002, 2.283136e+005
6.374000e+002, 2.307028e+005
6.377000e+002, 2.415758e+005
6.380000e+002, 2.494907e+005
6.383000e+002, 2.569709e+005
6.386000e+002, 2.691458e+005
6.389000e+002, 2.802748e+005
6.392000e+002, 2.891747e+005
6.395000e+002, 2.986005e+005
6.398000e+002, 3.080291e+005
6.401000e+002, 3.150655e+005
6.404000e+002, 3.201827e+005
6.407000e+002, 3.206926e+005
6.410000e+002, 3.193812e+005
6.413000e+002, 3.111405e+005
6.416000e+002, 3.061748e+005
6.419000e+002, 2.972994e+005
6.422000e+002, 2.887248e+005
6.425000e+002, 2.811661e+005
6.428000e+002, 2.694438e+005
6.431000e+002, 2.569142e+005
6.434000e+002, 2.490288e+005
6.437000e+002, 2.420757e+005
6.440000e+002, 2.342364e+005
6.443000e+002, 2.292284e+005
6.446000e+002, 2.239080e+005
6.449000e+002, 2.228080e+005
6.452000e+002, 2.173404e+005
6.455000e+002, 2.181929e+005
6.458000e+002, 2.189561e+005
6.461000e+002, 2.182726e+005
6.464000e+002, 2.196028e+005
6.467000e+002, 2.196002e+005
6.470000e+002, 2.186492e+005
6.473000e+002, 2.163349e+005
6.476000e+002, 2.156701e+005
6.479000e+002, 2.153370e+005
6.482000e+002, 2.182435e+005
6.485000e+002, 2.167656e+005
6.488000e+002, 2.180402e+005
6.491000e+002, 2.211247e+005
6.494000e+002, 2.212296e+005
6.497000e+002, 2.240875e+005
6.500000e+002, 2.250799e+005
6.503000e+002, 2.280149e+005
6.506000e+002, 2.276436e+005
6.509000e+002, 2.281570e+005
6.512000e+002, 2.298986e+005
6.515000e+002, 2.324233e+005
6.518000e+002, 2.347953e+005
6.521000e+002, 2.354575e+005
6.524000e+002, 2.355445e+005
6.527000e+002, 2.341567e+005
6.530000e+002, 2.356401e+005
6.533000e+002, 2.346524e+005
6.536000e+002, 2.334771e+005
6.539000e+002, 2.327820e+005
6.542000e+002, 2.352753e+005
6.545000e+002, 2.362709e+005
6.548000e+002, 2.341828e+005
6.551000e+002, 2.320202e+005
6.554000e+002, 2.334200e+005
6.557000e+002, 2.317880e+005
6.560000e+002, 2.346018e+005
6.563000e+002, 2.339921e+005
6.566000e+002, 2.337999e+005
6.569000e+002, 2.347077e+005
6.572000e+002, 2.310268e+005
6.575000e+002, 2.302437e+005
6.578000e+002, 2.324728e+005
6.581000e+002, 2.301727e+005
6.584000e+002, 2.296079e+005
6.587000e+002, 2.322536e+005
6.590000e+002, 2.338025e+005
6.593000e+002, 2.345581e+005
6.596000e+002, 2.303395e+005
6.599000e+002, 2.330583e+005
6.602000e+002, 2.349143e+005
6.605000e+002, 2.322007e+005
6.608000e+002, 2.305796e+005
6.611000e+002, 2.318628e+005
6.614000e+002, 2.319284e+005
6.617000e+002, 2.351194e+005
6.620000e+002, 2.346775e+005
6.623000e+002, 2.373799e+005
6.626000e+002, 2.388678e+005
6.629000e+002, 2.408391e+005
6.632000e+002, 2.391047e+005
6.635000e+002, 2.362623e+005
6.638000e+002, 2.358225e+005
6.641000e+002, 2.352971e+005
6.644000e+002, 2.388402e+005
6.647000e+002, 2.425144e+005
6.650000e+002, 2.446240e+005
6.653000e+002, 2.429553e+005
6.656000e+002, 2.421184e+005
6.659000e+002, 2.399153e+005
6.662000e+002, 2.398723e+005
6.665000e+002, 2.415208e+005
6.668000e+002, 2.405290e+005
6.671000e+002, 2.397590e+005
6.674000e+002, 2.409286e+005
6.677000e+002, 2.427840e+005
6.680000e+002, 2.421074e+005
6.683000e+002, 2.402639e+005
6.686000e+002, 2.377172e+005
6.689000e+002, 2.384591e+005
6.692000e+002, 2.360451e+005
6.695000e+002, 2.345274e+005
6.698000e+002, 2.351946e+005
6.701000e+002, 2.348694e+005
6.704000e+002, 2.351929e+005
6.707000e+002, 2.380278e+005
6.710000e+002, 2.382684e+005
6.713000e+002, 2.409140e+005
6.716000e+002, 2.400959e+005
6.719000e+002, 2.385730e+005
6.722000e+002, 2.398924e+005
6.725000e+002, 2.390428e+005
6.728000e+002, 2.412262e+005
6.731000e+002, 2.393714e+005
6.734000e+002, 2.368657e+005
6.737000e+002, 2.365124e+005
6.740000e+002, 2.366255e+005
6.743000e+002, 2.373864e+005
6.746000e+002, 2.402871e+005
6.749000e+002, 2.411507e+005
6.752000e+002, 2.405104e+005
6.755000e+002, 2.400090e+005
6.758000e+002, 2.404357e+005
6.761000e+002, 2.397111e+005
6.764000e+002, 2.382935e+005
6.767000e+002, 2.358879e+005
6.770000e+002, 2.362078e+005
6.773000e+002, 2.349976e+005
6.776000e+002, 2.353724e+005
6.779000e+002, 2.354178e+005
6.782000e+002, 2.325748e+005
6.785000e+002, 2.338397e+005
6.788000e+002, 2.322437e+005
6.791000e+002, 2.328618e+005
6.794000e+002, 2.295931e+005
6.797000e+002, 2.274842e+005
6.800000e+002, 2.287722e+005
6.803000e+002, 2.306424e+005
6.806000e+002, 2.306010e+005
6.809000e+002, 2.307436e+005
6.812000e+002, 2.293295e+005
6.815000e+002, 2.322405e+005
6.818000e+002, 2.331598e+005
6.821000e+002, 2.345560e+005
6.824000e+002, 2.364902e+005
6.827000e+002, 2.393152e+005
6.830000e+002, 2.371207e+005
6.833000e+002, 2.348833e+005
6.836000e+002, 2.312765e+005
6.839000e+002, 2.300000e+005
6.842000e+002, 2.294207e+005
6.845000e+002, 2.308917e+005
6.848000e+002, 2.327384e+005
6.851000e+002, 2.330035e+005
6.854000e+002, 2.316383e+005
6.857000e+002, 2.302103e+005
6.860000e+002, 2.308617e+005
6.863000e+002, 2.287885e+005
6.866000e+002, 2.293192e+005
6.869000e+002, 2.287783e+005
6.872000e+002, 2.278835e+005
6.875000e+002, 2.298135e+005
6.878000e+002, 2.311784e+005
6.881000e+002, 2.313758e+005
6.884000e+002, 2.285130e+005
6.887000e+002, 2.260361e+005
6.890000e+002, 2.282890e+005
6.893000e+002, 2.284292e+005
6.896000e+002, 2.296003e+005
6.899000e+002, 2.287250e+005
6.902000e+002, 2.293582e+005
6.905000e+002, 2.279084e+005
6.908000e+002, 2.278132e+005
6.911000e+002, 2.290746e+005
6.914000e+002, 2.281850e+005
6.917000e+002, 2.268749e+005
6.920000e+002, 2.278588e+005
6.923000e+002, 2.260698e+005
6.926000e+002, 2.264742e+005
6.929000e+002, 2.263393e+005
6.932000e+002, 2.251466e+005
6.935000e+002, 2.231773e+005
6.938000e+002, 2.206620e+005
6.941000e+002, 2.218836e+005
6.944000e+002, 2.247564e+005
6.947000e+002, 2.272681e+005
6.950000e+002, 2.282785e+005
6.953000e+002, 2.260038e+005
6.956000e+002, 2.238136e+005
6.959000e+002, 2.235739e+005
6.962000e+002, 2.233669e+005
6.965000e+002, 2.237714e+005
6.968000e+002, 2.236202e+005
6.971000e+002, 2.247123e+005
6.974000e+002, 2.252782e+005
6.977000e+002, 2.220191e+005
6.980000e+002, 2.212388e+005
6.983000e+002, 2.216387e+005
6.986000e+002, 2.200282e+005
6.989000e+002, 2.202950e+005
6.992000e+002, 2.237303e+005
6.995000e+002, 2.233807e+005
6.998000e+002, 2.266219e+005
7.001000e+002, 2.290412e+005
7.004000e+002, 2.293239e+005
7.007000e+002, 2.269648e+005
7.010000e+002, 2.264450e+005
7.013000e+002, 2.254112e+005
7.016000e+002, 2.246950e+005
7.019000e+002, 2.245797e+005
7.022000e+002, 2.238283e+005
7.025000e+002, 2.241885e+005
7.028000e+002, 2.266389e+005
7.031000e+002, 2.237889e+005
7.034000e+002, 2.227094e+005
7.037000e+002, 2.209175e+005
7.040000e+002, 2.220123e+005
7.043000e+002, 2.217788e+005
7.046000e+002, 2.217009e+005
7.049000e+002, 2.228580e+005
7.052000e+002, 2.232756e+005
7.055000e+002, 2.241398e+005
7.058000e+002, 2.237265e+005
7.061000e+002, 2.219645e+005
7.064000e+002, 2.221875e+005
7.067000e+002, 2.208413e+005
7.070000e+002, 2.202268e+005
7.073000e+002, 2.215458e+005
7.076000e+002, 2.210485e+005
7.079000e+002, 2.209178e+005
7.082000e+002, 2.194221e+005
7.085000e+002, 2.183346e+005
7.088000e+002, 2.164331e+005
7.091000e+002, 2.181548e+005
7.094000e+002, 2.194729e+005
7.097000e+002, 2.182507e+005
7.100000e+002, 2.189088e+005
7.103000e+002, 2.187550e+005
7.106000e+002, 2.188560e+005
7.109000e+002, 2.155915e+005
7.112000e+002, 2.161357e+005
7.115000e+002, 2.135662e+005
7.118000e+002, 2.142628e+005
7.121000e+002, 2.139247e+005
7.124000e+002, 2.147848e+005
7.127000e+002, 2.135750e+005
7.130000e+002, 2.138051e+005
7.133000e+002, 2.139429e+005
7.136000e+002, 2.140957e+005
7.139000e+002, 2.136256e+005
7.142000e+002, 2.136728e+005
7.145000e+002, 2.126570e+005
7.148000e+002, 2.117184e+005
7.151000e+002, 2.149960e+005
7.154000e+002, 2.154112e+005
7.157000e+002, 2.133120e+005
7.160000e+002, 2.142862e+005
7.163000e+002, 2.166806e+005
7.166000e+002, 2.168878e+005
7.169000e+002, 2.155891e+005
7.172000e+002, 2.159193e+005
7.175000e+002, 2.154479e+005
7.178000e+002, 2.126966e+005
7.181000e+002, 2.119055e+005
7.184000e+002, 2.132648e+005
7.187000e+002, 2.127810e+005
7.190000e+002, 2.121202e+005
7.193000e+002, 2.128195e+005
7.196000e+002, 2.126448e+005
7.199000e+002, 2.131949e+005
7.202000e+002, 2.128493e+005
7.205000e+002, 2.122670e+005
7.208000e+002, 2.117464e+005
7.211000e+002, 2.112251e+005
7.214000e+002, 2.122054e+005
7.217000e+002, 2.105011e+005
7.220000e+002, 2.107069e+005
7.223000e+002, 2.103296e+005
7.226000e+002, 2.073420e+005
7.229000e+002, 2.081153e+005
7.232000e+002, 2.119810e+005
7.235000e+002, 2.132707e+005
7.238000e+002, 2.120448e+005
7.241000e+002, 2.098706e+005
7.244000e+002, 2.087247e+005
7.247000e+002, 2.098304e+005
7.250000e+002, 2.105119e+005
7.253000e+002, 2.114948e+005
7.256000e+002, 2.122318e+005
7.259000e+002, 2.096132e+005
7.262000e+002, 2.099824e+005
7.265000e+002, 2.097177e+005
7.268000e+002, 2.076918e+005
7.271000e+002, 2.082076e+005
7.274000e+002, 2.084011e+005
7.277000e+002, 2.078469e+005
7.280000e+002, 2.071784e+005
7.283000e+002, 2.076561e+005
7.286000e+002, 2.100205e+005
7.289000e+002, 2.103758e+005
7.292000e+002, 2.111045e+005
7.295000e+002, 2.104504e+005
7.298000e+002, 2.074040e+005
7.301000e+002, 2.064676e+005
7.304000e+002, 2.047553e+005
7.307000e+002, 2.019832e+005
7.310000e+002, 2.024206e+005
7.313000e+002, 2.053679e+005
7.316000e+002, 2.070309e+005
7.319000e+002, 2.089849e+005
7.322000e+002, 2.083812e+005
7.325000e+002, 2.091516e+005
7.328000e+002, 2.094312e+005
7.331000e+002, 2.069074e+005
7.334000e+002, 2.041343e+005
7.337000e+002, 2.022394e+005
7.340000e+002, 2.022984e+005
7.343000e+002, 2.027604e+005
7.346000e+002, 2.034234e+005
7.349000e+002, 2.024487e+005
7.352000e+002, 2.020776e+005
7.355000e+002, 2.015041e+005
7.358000e+002, 2.024257e+005
7.361000e+002, 2.024907e+005
7.364000e+002, 2.039673e+005
7.367000e+002, 2.041724e+005
7.370000e+002, 2.026541e+005
7.373000e+002, 2.026107e+005
7.376000e+002, 2.040361e+005
7.379000e+002, 2.060989e+005
7.382000e+002, 2.062880e+005
7.385000e+002, 2.053481e+005
7.388000e+002, 2.042709e+005
7.391000e+002, 2.039965e+005
7.394000e+002, 2.042710e+005
7.397000e+002, 2.021745e+005
7.400000e+002, 2.005998e+005
7.403000e+002, 2.021284e+005
7.406000e+002, 2.016429e+005
7.409000e+002, 2.010981e+005
7.412000e+002, 2.019476e+005
7.415000e+002, 2.011044e+005
7.418000e+002, 1.996726e+005
7.421000e+002, 1.998277e+005
7.424000e+002, 2.011470e+005
7.427000e+002, 2.024939e+005
7.430000e+002, 2.025063e+005
7.433000e+002, 2.025725e+005
7.436000e+002, 2.008002e+005
7.439000e+002, 2.024446e+005
7.442000e+002, 2.020198e+005
7.445000e+002, 2.016235e+005
7.448000e+002, 1.991159e+005
7.451000e+002, 1.991032e+005
7.454000e+002, 1.961076e+005
7.457000e+002, 1.985559e+005
7.460000e+002, 1.992969e+005
7.463000e+002, 1.998275e+005
7.466000e+002, 1.982129e+005
7.469000e+002, 2.010682e+005
7.472000e+002, 2.018769e+005
7.475000e+002, 2.009445e+005
7.478000e+002, 2.009446e+005
7.481000e+002, 2.006524e+005
7.484000e+002, 1.976687e+005
7.487000e+002, 1.994819e+005
7.490000e+002, 2.002107e+005
7.493000e+002, 2.030241e+005
7.496000e+002, 2.027855e+005
7.499000e+002, 2.017762e+005
7.502000e+002, 2.010132e+005
7.505000e+002, 2.008733e+005
7.508000e+002, 2.004846e+005
7.511000e+002, 2.020705e+005
7.514000e+002, 2.022485e+005
7.517000e+002, 2.037112e+005
7.520000e+002, 2.036763e+005
7.523000e+002, 2.038178e+005
7.526000e+002, 2.032550e+005
7.529000e+002, 2.029740e+005
7.532000e+002, 2.031533e+005
7.535000e+002, 2.032265e+005
7.538000e+002, 2.021462e+005
7.541000e+002, 2.018339e+005
7.544000e+002, 2.025408e+005
7.547000e+002, 2.015834e+005
7.550000e+002, 2.017978e+005
7.553000e+002, 2.049544e+005
7.556000e+002, 2.060469e+005
7.559000e+002, 2.051178e+005
7.562000e+002, 2.024993e+005
7.565000e+002, 2.012788e+005
7.568000e+002, 2.015575e+005
7.571000e+002, 2.018193e+005
7.574000e+002, 2.036363e+005
7.577000e+002, 2.042712e+005
7.580000e+002, 2.009887e+005
7.583000e+002, 1.997286e+005
7.586000e+002, 1.981964e+005
7.589000e+002, 1.980950e+005
7.592000e+002, 1.978203e+005
7.595000e+002, 1.978799e+005
7.598000e+002, 2.011378e+005
7.601000e+002, 2.009040e+005
7.604000e+002, 2.002370e+005
7.607000e+002, 2.012237e+005
7.610000e+002, 2.037621e+005
7.613000e+002, 2.048317e+005
7.616000e+002, 2.081183e+005
7.619000e+002, 2.127812e+005
7.622000e+002, 2.145011e+005
7.625000e+002, 2.158508e+005
7.628000e+002, 2.201327e+005
7.631000e+002, 2.256544e+005
7.634000e+002, 2.278384e+005
7.637000e+002, 2.293298e+005
7.640000e+002, 2.282639e+005
7.643000e+002, 2.290643e+005
7.646000e+002, 2.281350e+005
7.649000e+002, 2.253196e+005
7.652000e+002, 2.234562e+005
7.655000e+002, 2.202242e+005
7.658000e+002, 2.188798e+005
7.661000e+002, 2.159898e+005
7.664000e+002, 2.132073e+005
7.667000e+002, 2.102499e+005
7.670000e+002, 2.086389e+005
7.673000e+002, 2.058148e+005
7.676000e+002, 2.035863e+005
7.679000e+002, 2.006988e+005
7.682000e+002, 2.006423e+005
7.685000e+002, 2.007108e+005
7.688000e+002, 1.982767e+005
7.691000e+002, 1.976826e+005
7.694000e+002, 1.965045e+005
7.697000e+002, 1.971691e+005
7.700000e+002, 1.975103e+005
7.703000e+002, 1.977853e+005
7.706000e+002, 1.982036e+005
7.709000e+002, 1.970912e+005
7.712000e+002, 1.957643e+005
7.715000e+002, 1.959841e+005
7.718000e+002, 1.973978e+005
7.721000e+002, 1.965049e+005
7.724000e+002, 1.964812e+005
7.727000e+002, 1.963050e+005
7.730000e+002, 1.964614e+005
7.733000e+002, 1.956798e+005
7.736000e+002, 1.932981e+005
7.739000e+002, 1.909223e+005
7.742000e+002, 1.920386e+005
7.745000e+002, 1.938137e+005
7.748000e+002, 1.942572e+005
7.751000e+002, 1.956368e+005
7.754000e+002, 1.980706e+005
7.757000e+002, 1.993025e+005
7.760000e+002, 1.999795e+005
7.763000e+002, 2.013357e+005
7.766000e+002, 2.023830e+005
7.769000e+002, 2.027240e+005
7.772000e+002, 2.037091e+005
7.775000e+002, 2.058738e+005
7.778000e+002, 2.052265e+005
7.781000e+002, 2.076582e+005
7.784000e+002, 2.071537e+005
7.787000e+002, 2.058609e+005
7.790000e+002, 2.050486e+005
7.793000e+002, 2.038252e+005
7.796000e+002, 2.004064e+005
7.799000e+002, 2.013528e+005
7.802000e+002, 2.016967e+005
7.805000e+002, 2.001915e+005
7.808000e+002, 1.965736e+005
7.811000e+002, 1.971933e+005
7.814000e+002, 1.981675e+005
7.817000e+002, 1.982886e+005
7.820000e+002, 1.985916e+005
7.823000e+002, 1.982818e+005
7.826000e+002, 1.978060e+005
7.829000e+002, 1.986760e+005
7.832000e+002, 1.972040e+005
7.835000e+002, 1.943101e+005
7.838000e+002, 1.946805e+005
7.841000e+002, 1.946616e+005
7.844000e+002, 1.931395e+005
7.847000e+002, 1.919164e+005
7.850000e+002, 1.914749e+005
7.853000e+002, 1.927094e+005
7.856000e+002, 1.934034e+005
7.859000e+002, 1.946681e+005
7.862000e+002, 1.927578e+005
7.865000e+002, 1.938334e+005
7.868000e+002, 1.934060e+005
7.871000e+002, 1.926901e+005
7.874000e+002, 1.924031e+005
7.877000e+002, 1.939624e+005
7.880000e+002, 1.937343e+005
7.883000e+002, 1.926514e+005
7.886000e+002, 1.938932e+005
7.889000e+002, 1.937877e+005
7.892000e+002, 1.954595e+005
7.895000e+002, 1.961495e+005
7.898000e+002, 1.939904e+005
7.901000e+002, 1.924053e+005
7.904000e+002, 1.930852e+005
7.907000e+002, 1.916600e+005
7.910000e+002, 1.908263e+005
7.913000e+002, 1.900718e+005
7.916000e+002, 1.907945e+005
7.919000e+002, 1.918466e+005
7.922000e+002, 1.924499e+005
7.925000e+002, 1.938379e+005
7.928000e+002, 1.946327e+005
7.931000e+002, 1.926823e+005
7.934000e+002, 1.911030e+005
7.937000e+002, 1.906618e+005
7.940000e+002, 1.893454e+005
7.943000e+002, 1.901763e+005
7.946000e+002, 1.924522e+005
7.949000e+002, 1.938040e+005
7.952000e+002, 1.933580e+005
7.955000e+002, 1.912797e+005
7.958000e+002, 1.921202e+005
7.961000e+002, 1.915322e+005
7.964000e+002, 1.916016e+005
7.967000e+002, 1.907915e+005
7.970000e+002, 1.896474e+005
7.973000e+002, 1.905338e+005
7.976000e+002, 1.923215e+005
7.979000e+002, 1.919226e+005
7.982000e+002, 1.915942e+005
7.985000e+002, 1.890218e+005
7.988000e+002, 1.904487e+005
7.991000e+002, 1.914249e+005
7.994000e+002, 1.897355e+005
7.997000e+002, 1.897739e+005
8.000000e+002, 1.887740e+005
8.003000e+002, 1.877783e+005
8.006000e+002, 1.904562e+005
8.009000e+002, 1.909476e+005
8.012000e+002, 1.925575e+005
8.015000e+002, 1.920021e+005
8.018000e+002, 1.927908e+005
8.021000e+002, 1.934397e+005
8.024000e+002, 1.943515e+005
8.027000e+002, 1.942690e+005
8.030000e+002, 1.936116e+005
8.033000e+002, 1.919304e+005
8.036000e+002, 1.933179e+005
8.039000e+002, 1.944811e+005
8.042000e+002, 1.924336e+005
8.045000e+002, 1.907161e+005
8.048000e+002, 1.895063e+005
8.051000e+002, 1.885748e+005
8.054000e+002, 1.884812e+005
8.057000e+002, 1.861163e+005
8.060000e+002, 1.852877e+005
8.063000e+002, 1.875638e+005
8.066000e+002, 1.891485e+005
8.069000e+002, 1.890826e+005
8.072000e+002, 1.872977e+005
8.075000e+002, 1.870688e+005
8.078000e+002, 1.864998e+005
8.081000e+002, 1.866909e+005
8.084000e+002, 1.882297e+005
8.087000e+002, 1.878812e+005
8.090000e+002, 1.873173e+005
8.093000e+002, 1.876351e+005
8.096000e+002, 1.869977e+005
8.099000e+002, 1.869948e+005
8.102000e+002, 1.878765e+005
8.105000e+002, 1.867122e+005
8.108000e+002, 1.869958e+005
8.111000e+002, 1.880710e+005
8.114000e+002, 1.862775e+005
8.117000e+002, 1.845920e+005
8.120000e+002, 1.821817e+005
8.123000e+002, 1.807806e+005
8.126000e+002, 1.803180e+005
8.129000e+002, 1.822477e+005
8.132000e+002, 1.845483e+005
8.135000e+002, 1.828577e+005
8.138000e+002, 1.826200e+005
8.141000e+002, 1.830959e+005
8.144000e+002, 1.856177e+005
8.147000e+002, 1.845765e+005
8.150000e+002, 1.855181e+005
8.153000e+002, 1.838400e+005
8.156000e+002, 1.844236e+005
8.159000e+002, 1.844563e+005
8.162000e+002, 1.837775e+005
8.165000e+002, 1.834781e+005
8.168000e+002, 1.839931e+005
8.171000e+002, 1.823666e+005
8.174000e+002, 1.822310e+005
8.177000e+002, 1.833127e+005
8.180000e+002, 1.851409e+005
8.183000e+002, 1.847375e+005
8.186000e+002, 1.829486e+005
8.189000e+002, 1.831071e+005
8.192000e+002, 1.834947e+005
8.195000e+002, 1.829652e+005
8.198000e+002, 1.835990e+005
8.201000e+002, 1.824385e+005
8.204000e+002, 1.817936e+005
8.207000e+002, 1.815722e+005
8.210000e+002, 1.808204e+005
8.213000e+002, 1.840015e+005
8.216000e+002, 1.829348e+005
8.219000e+002, 1.813468e+005
8.222000e+002, 1.798771e+005
8.225000e+002, 1.789929e+005
8.228000e+002, 1.791377e+005
8.231000e+002, 1.796177e+005
8.234000e+002, 1.784577e+005
8.237000e+002, 1.791005e+005
8.240000e+002, 1.772435e+005
8.243000e+002, 1.777512e+005
8.246000e+002, 1.780588e+005
8.249000e+002, 1.775716e+005
8.252000e+002, 1.776116e+005
8.255000e+002, 1.798334e+005
8.258000e+002, 1.821687e+005
8.261000e+002, 1.831037e+005
8.264000e+002, 1.811487e+005
8.267000e+002, 1.795675e+005
8.270000e+002, 1.802365e+005
8.273000e+002, 1.807232e+005
8.276000e+002, 1.791083e+005
8.279000e+002, 1.779548e+005
8.282000e+002, 1.788264e+005
8.285000e+002, 1.789151e+005
8.288000e+002, 1.813662e+005
8.291000e+002, 1.825218e+005
8.294000e+002, 1.789766e+005
8.297000e+002, 1.774772e+005
8.300000e+002, 1.772046e+005
8.303000e+002, 1.774321e+005
8.306000e+002, 1.754964e+005
8.309000e+002, 1.752109e+005
8.312000e+002, 1.753127e+005
8.315000e+002, 1.770755e+005
8.318000e+002, 1.763965e+005
8.321000e+002, 1.765940e+005
8.324000e+002, 1.780092e+005
8.327000e+002, 1.822007e+005
8.330000e+002, 1.874466e+005
8.333000e+002, 1.881160e+005
8.336000e+002, 1.898055e+005
8.339000e+002, 1.932979e+005
8.342000e+002, 1.953138e+005
8.345000e+002, 1.961848e+005
8.348000e+002, 1.957855e+005
8.351000e+002, 1.945551e+005
8.354000e+002, 1.948395e+005
8.357000e+002, 1.946047e+005
8.360000e+002, 1.944804e+005
8.363000e+002, 1.913184e+005
8.366000e+002, 1.886942e+005
8.369000e+002, 1.848967e+005
8.372000e+002, 1.836889e+005
8.375000e+002, 1.812522e+005
8.378000e+002, 1.805333e+005
8.381000e+002, 1.792913e+005
8.384000e+002, 1.786409e+005
8.387000e+002, 1.778514e+005
8.390000e+002, 1.783092e+005
8.393000e+002, 1.772862e+005
8.396000e+002, 1.758303e+005
8.399000e+002, 1.749733e+005
8.402000e+002, 1.769096e+005
8.405000e+002, 1.763123e+005
8.408000e+002, 1.743306e+005
8.411000e+002, 1.738270e+005
8.414000e+002, 1.738055e+005
8.417000e+002, 1.736906e+005
8.420000e+002, 1.732684e+005
8.423000e+002, 1.745878e+005
8.426000e+002, 1.745688e+005
8.429000e+002, 1.737625e+005
8.432000e+002, 1.723469e+005
8.435000e+002, 1.737338e+005
8.438000e+002, 1.722203e+005
8.441000e+002, 1.700956e+005
8.444000e+002, 1.706498e+005
8.447000e+002, 1.719490e+005
8.450000e+002, 1.709070e+005
8.453000e+002, 1.716507e+005
8.456000e+002, 1.703577e+005
8.459000e+002, 1.697431e+005
8.462000e+002, 1.705344e+005
8.465000e+002, 1.713490e+005
8.468000e+002, 1.723725e+005
8.471000e+002, 1.732165e+005
8.474000e+002, 1.721550e+005
8.477000e+002, 1.709779e+005
8.480000e+002, 1.712423e+005
8.483000e+002, 1.715806e+005
8.486000e+002, 1.742112e+005
8.489000e+002, 1.743911e+005
8.492000e+002, 1.753851e+005
8.495000e+002, 1.729539e+005
8.498000e+002, 1.723414e+005
8.501000e+002, 1.735533e+005
8.504000e+002, 1.732839e+005
8.507000e+002, 1.738538e+005
8.510000e+002, 1.747464e+005
8.513000e+002, 1.770349e+005
8.516000e+002, 1.764156e+005
8.519000e+002, 1.758850e+005
8.522000e+002, 1.735536e+005
8.525000e+002, 1.735070e+005
8.528000e+002, 1.736228e+005
8.531000e+002, 1.733313e+005
8.534000e+002, 1.726172e+005
8.537000e+002, 1.740118e+005
8.540000e+002, 1.745327e+005
8.543000e+002, 1.725988e+005
8.546000e+002, 1.699943e+005
8.549000e+002, 1.705373e+005
8.552000e+002, 1.705864e+005
8.555000e+002, 1.715343e+005
8.558000e+002, 1.727399e+005
8.561000e+002, 1.714547e+005
8.564000e+002, 1.703597e+005
8.567000e+002, 1.677061e+005
8.570000e+002, 1.693599e+005
8.573000e+002, 1.716356e+005
8.576000e+002, 1.715711e+005
8.579000e+002, 1.718414e+005
8.582000e+002, 1.702195e+005
8.585000e+002, 1.705779e+005
8.588000e+002, 1.701563e+005
8.591000e+002, 1.708019e+005
8.594000e+002, 1.713396e+005
8.597000e+002, 1.714385e+005
8.600000e+002, 1.720725e+005
8.603000e+002, 1.720095e+005
8.606000e+002, 1.697621e+005
8.609000e+002, 1.690230e+005
8.612000e+002, 1.698447e+005
8.615000e+002, 1.695516e+005
8.618000e+002, 1.682267e+005
8.621000e+002, 1.676989e+005
8.624000e+002, 1.681348e+005
8.627000e+002, 1.669277e+005
8.630000e+002, 1.680263e+005
8.633000e+002, 1.685969e+005
8.636000e+002, 1.685948e+005
8.639000e+002, 1.683431e+005
8.642000e+002, 1.686240e+005
8.645000e+002, 1.692307e+005
8.648000e+002, 1.677881e+005
8.651000e+002, 1.677947e+005
8.654000e+002, 1.681579e+005
8.657000e+002, 1.687463e+005
8.660000e+002, 1.692105e+005
8.663000e+002, 1.699541e+005
8.666000e+002, 1.695490e+005
8.669000e+002, 1.709596e+005
8.672000e+002, 1.711246e+005
8.675000e+002, 1.691218e+005
8.678000e+002, 1.670013e+005
8.681000e+002, 1.665650e+005
8.684000e+002, 1.666935e+005
8.687000e+002, 1.661452e+005
8.690000e+002, 1.673807e+005
8.693000e+002, 1.676101e+005
8.696000e+002, 1.684606e+005
8.699000e+002, 1.687772e+005
8.702000e+002, 1.662864e+005
8.705000e+002, 1.659519e+005
8.708000e+002, 1.675379e+005
8.711000e+002, 1.694982e+005
8.714000e+002, 1.691156e+005
8.717000e+002, 1.668838e+005
8.720000e+002, 1.652324e+005
8.723000e+002, 1.640372e+005
8.726000e+002, 1.628002e+005
8.729000e+002, 1.645108e+005
8.732000e+002, 1.654891e+005
8.735000e+002, 1.647180e+005
8.738000e+002, 1.642431e+005
8.741000e+002, 1.645455e+005
8.744000e+002, 1.643595e+005
8.747000e+002, 1.667796e+005
8.750000e+002, 1.664730e+005
8.753000e+002, 1.661889e+005
8.756000e+002, 1.649760e+005
8.759000e+002, 1.632463e+005
8.762000e+002, 1.647871e+005
8.765000e+002, 1.646107e+005
8.768000e+002, 1.640766e+005
8.771000e+002, 1.650808e+005
8.774000e+002, 1.649284e+005
8.777000e+002, 1.638680e+005
8.780000e+002, 1.632639e+005
8.783000e+002, 1.645557e+005
8.786000e+002, 1.646431e+005
8.789000e+002, 1.637046e+005
8.792000e+002, 1.628078e+005
8.795000e+002, 1.635290e+005
8.798000e+002, 1.651315e+005
8.801000e+002, 1.633258e+005
8.804000e+002, 1.617328e+005
8.807000e+002, 1.600434e+005
8.810000e+002, 1.602890e+005
8.813000e+002, 1.616347e+005
8.816000e+002, 1.634652e+005
8.819000e+002, 1.621337e+005
8.822000e+002, 1.602741e+005
8.825000e+002, 1.610024e+005
8.828000e+002, 1.630233e+005
8.831000e+002, 1.611601e+005
8.834000e+002, 1.619692e+005
8.837000e+002, 1.614461e+005
8.840000e+002, 1.618099e+005
8.843000e+002, 1.628546e+005
8.846000e+002, 1.637884e+005
8.849000e+002, 1.619368e+005
8.852000e+002, 1.610108e+005
8.855000e+002, 1.602918e+005
8.858000e+002, 1.600573e+005
8.861000e+002, 1.614535e+005
8.864000e+002, 1.607762e+005
8.867000e+002, 1.610189e+005
8.870000e+002, 1.602338e+005
8.873000e+002, 1.582915e+005
8.876000e+002, 1.577336e+005
8.879000e+002, 1.594730e+005
8.882000e+002, 1.602889e+005
8.885000e+002, 1.591124e+005
8.888000e+002, 1.586896e+005
8.891000e+002, 1.576706e+005
8.894000e+002, 1.565323e+005
8.897000e+002, 1.589751e+005
8.900000e+002, 1.588660e+005
8.903000e+002, 1.580055e+005
8.906000e+002, 1.579803e+005
8.909000e+002, 1.569686e+005
8.912000e+002, 1.570795e+005
8.915000e+002, 1.571570e+005
8.918000e+002, 1.551926e+005
8.921000e+002, 1.568792e+005
8.924000e+002, 1.561821e+005
8.927000e+002, 1.561353e+005
8.930000e+002, 1.575079e+005
8.933000e+002, 1.569985e+005
8.936000e+002, 1.572373e+005
8.939000e+002, 1.557202e+005
8.942000e+002, 1.549136e+005
8.945000e+002, 1.552840e+005
8.948000e+002, 1.551071e+005
8.951000e+002, 1.544265e+005
8.954000e+002, 1.549176e+005
8.957000e+002, 1.537058e+005
8.960000e+002, 1.530950e+005
8.963000e+002, 1.522274e+005
8.966000e+002, 1.536217e+005
8.969000e+002, 1.560933e+005
8.972000e+002, 1.567322e+005
8.975000e+002, 1.560775e+005
8.978000e+002, 1.556136e+005
8.981000e+002, 1.564681e+005
8.984000e+002, 1.583450e+005
8.987000e+002, 1.569302e+005
8.990000e+002, 1.558345e+005
8.993000e+002, 1.557908e+005
8.996000e+002, 1.570246e+005
8.999000e+002, 1.568880e+005
9.002000e+002, 1.540341e+005
9.005000e+002, 1.540974e+005
9.008000e+002, 1.548326e+005
9.011000e+002, 1.528908e+005
9.014000e+002, 1.536613e+005
9.017000e+002, 1.528529e+005
9.020000e+002, 1.531894e+005
9.023000e+002, 1.541048e+005
9.026000e+002, 1.545300e+005
9.029000e+002, 1.530678e+005
9.032000e+002, 1.509492e+005
9.035000e+002, 1.507303e+005
9.038000e+002, 1.500638e+005
9.041000e+002, 1.511518e+005
9.044000e+002, 1.513104e+005
9.047000e+002, 1.515813e+005
9.050000e+002, 1.508903e+005
9.053000e+002, 1.520714e+005
9.056000e+002, 1.530554e+005
9.059000e+002, 1.545186e+005
9.062000e+002, 1.533426e+005
9.065000e+002, 1.514534e+005
9.068000e+002, 1.513056e+005
9.071000e+002, 1.507255e+005
9.074000e+002, 1.514208e+005
9.077000e+002, 1.514477e+005
9.080000e+002, 1.510058e+005
9.083000e+002, 1.507272e+005
9.086000e+002, 1.524037e+005
9.089000e+002, 1.523147e+005
9.092000e+002, 1.526350e+005
9.095000e+002, 1.514025e+005
9.098000e+002, 1.506586e+005
9.101000e+002, 1.495942e+005
9.104000e+002, 1.493682e+005
9.107000e+002, 1.467854e+005
9.110000e+002, 1.477673e+005
9.113000e+002, 1.480371e+005
9.116000e+002, 1.493844e+005
9.119000e+002, 1.486381e+005
9.122000e+002, 1.480490e+005
9.125000e+002, 1.466917e+005
9.128000e+002, 1.490076e+005
9.131000e+002, 1.489315e+005
9.134000e+002, 1.473832e+005
9.137000e+002, 1.490789e+005
9.140000e+002, 1.493210e+005
9.143000e+002, 1.481738e+005
9.146000e+002, 1.495299e+005
9.149000e+002, 1.499460e+005
9.152000e+002, 1.476840e+005
9.155000e+002, 1.488892e+005
9.158000e+002, 1.492078e+005
9.161000e+002, 1.489650e+005
9.164000e+002, 1.517341e+005
9.167000e+002, 1.527265e+005
9.170000e+002, 1.515440e+005
9.173000e+002, 1.502325e+005
9.176000e+002, 1.485202e+005
9.179000e+002, 1.484725e+005
9.182000e+002, 1.490600e+005
9.185000e+002, 1.486520e+005
9.188000e+002, 1.469992e+005
9.191000e+002, 1.458042e+005
9.194000e+002, 1.467141e+005
9.197000e+002, 1.451035e+005
9.200000e+002, 1.446127e+005
9.203000e+002, 1.443480e+005
9.206000e+002, 1.441030e+005
9.209000e+002, 1.447915e+005
9.212000e+002, 1.471332e+005
9.215000e+002, 1.460187e+005
9.218000e+002, 1.443215e+005
9.221000e+002, 1.454628e+005
9.224000e+002, 1.455837e+005
9.227000e+002, 1.449038e+005
9.230000e+002, 1.454783e+005
9.233000e+002, 1.454069e+005
9.236000e+002, 1.456190e+005
9.239000e+002, 1.445517e+005
9.242000e+002, 1.447740e+005
9.245000e+002, 1.449839e+005
9.248000e+002, 1.442476e+005
9.251000e+002, 1.447363e+005
9.254000e+002, 1.440000e+005
9.257000e+002, 1.434703e+005
9.260000e+002, 1.428185e+005
9.263000e+002, 1.438543e+005
9.266000e+002, 1.439903e+005
9.269000e+002, 1.434829e+005
9.272000e+002, 1.431183e+005
9.275000e+002, 1.440141e+005
9.278000e+002, 1.444119e+005
9.281000e+002, 1.444762e+005
9.284000e+002, 1.423908e+005
9.287000e+002, 1.421373e+005
9.290000e+002, 1.421253e+005
9.293000e+002, 1.421102e+005
9.296000e+002, 1.421080e+005
9.299000e+002, 1.426236e+005
9.302000e+002, 1.409212e+005
9.305000e+002, 1.412921e+005
9.308000e+002, 1.406007e+005
9.311000e+002, 1.400518e+005
9.314000e+002, 1.405643e+005
9.317000e+002, 1.401459e+005
9.320000e+002, 1.391295e+005
9.323000e+002, 1.389505e+005
9.326000e+002, 1.388338e+005
9.329000e+002, 1.388992e+005
9.332000e+002, 1.379637e+005
9.335000e+002, 1.374382e+005
9.338000e+002, 1.383267e+005
9.341000e+002, 1.395574e+005
9.344000e+002, 1.382254e+005
9.347000e+002, 1.387513e+005
9.350000e+002, 1.380898e+005
9.353000e+002, 1.379403e+005
9.356000e+002, 1.386689e+005
9.359000e+002, 1.382367e+005
9.362000e+002, 1.392974e+005
9.365000e+002, 1.377885e+005
9.368000e+002, 1.377064e+005
9.371000e+002, 1.378983e+005
9.374000e+002, 1.378436e+005
9.377000e+002, 1.381321e+005
9.380000e+002, 1.391624e+005
9.383000e+002, 1.378094e+005
9.386000e+002, 1.389265e+005
9.389000e+002, 1.395139e+005
9.392000e+002, 1.391159e+005
9.395000e+002, 1.394400e+005
9.398000e+002, 1.377432e+005
9.401000e+002, 1.374914e+005
9.404000e+002, 1.362328e+005
9.407000e+002, 1.361069e+005
9.410000e+002, 1.361389e+005
9.413000e+002, 1.375255e+005
9.416000e+002, 1.384307e+005
9.419000e+002, 1.384857e+005
9.422000e+002, 1.377738e+005
9.425000e+002, 1.378282e+005
9.428000e+002, 1.379336e+005
9.431000e+002, 1.387514e+005
9.434000e+002, 1.385512e+005
9.437000e+002, 1.379721e+005
9.440000e+002, 1.364930e+005
9.443000e+002, 1.384180e+005
9.446000e+002, 1.376182e+005
9.449000e+002, 1.369352e+005
9.452000e+002, 1.357261e+005
9.455000e+002, 1.350233e+005
9.458000e+002, 1.342829e+005
9.461000e+002, 1.342990e+005
9.464000e+002, 1.358784e+005
9.467000e+002, 1.344298e+005
9.470000e+002, 1.349794e+005
9.473000e+002, 1.334120e+005
9.476000e+002, 1.325895e+005
9.479000e+002, 1.327556e+005
9.482000e+002, 1.343244e+005
9.485000e+002, 1.339009e+005
9.488000e+002, 1.345292e+005
9.491000e+002, 1.353778e+005
9.494000e+002, 1.358484e+005
9.497000e+002, 1.354777e+005
9.500000e+002, 1.354531e+005
9.503000e+002, 1.354093e+005
9.506000e+002, 1.360111e+005
9.509000e+002, 1.355243e+005
9.512000e+002, 1.342009e+005
9.515000e+002, 1.326764e+005
9.518000e+002, 1.331377e+005
9.521000e+002, 1.338163e+005
9.524000e+002, 1.331978e+005
9.527000e+002, 1.340890e+005
9.530000e+002, 1.329890e+005
9.533000e+002, 1.325735e+005
9.536000e+002, 1.327571e+005
9.539000e+002, 1.327411e+005
9.542000e+002, 1.335190e+005
9.545000e+002, 1.334900e+005
9.548000e+002, 1.333002e+005
9.551000e+002, 1.342998e+005
9.554000e+002, 1.328541e+005
9.557000e+002, 1.319113e+005
9.560000e+002, 1.305414e+005
9.563000e+002, 1.300396e+005
9.566000e+002, 1.301180e+005
9.569000e+002, 1.300787e+005
9.572000e+002, 1.311925e+005
9.575000e+002, 1.303796e+005
9.578000e+002, 1.300942e+005
9.581000e+002, 1.303768e+005
9.584000e+002, 1.314743e+005
9.587000e+002, 1.320095e+005
9.590000e+002, 1.321909e+005
9.593000e+002, 1.315678e+005
9.596000e+002, 1.294202e+005
9.599000e+002, 1.289505e+005
9.602000e+002, 1.284564e+005
9.605000e+002, 1.294669e+005
9.608000e+002, 1.286956e+005
9.611000e+002, 1.262653e+005
9.614000e+002, 1.270169e+005
9.617000e+002, 1.274454e+005
9.620000e+002, 1.277310e+005
9.623000e+002, 1.281831e+005
9.626000e+002, 1.283826e+005
9.629000e+002, 1.285360e+005
9.632000e+002, 1.281792e+005
9.635000e+002, 1.286587e+005
9.638000e+002, 1.302121e+005
9.641000e+002, 1.303600e+005
9.644000e+002, 1.280960e+005
9.647000e+002, 1.279569e+005
9.650000e+002, 1.278386e+005
9.653000e+002, 1.283392e+005
9.656000e+002, 1.289798e+005
9.659000e+002, 1.287226e+005
9.662000e+002, 1.278838e+005
9.665000e+002, 1.272922e+005
9.668000e+002, 1.281513e+005
9.671000e+002, 1.278761e+005
9.674000e+002, 1.290206e+005
9.677000e+002, 1.289118e+005
9.680000e+002, 1.269964e+005
9.683000e+002, 1.264429e+005
9.686000e+002, 1.251090e+005
9.689000e+002, 1.251416e+005
9.692000e+002, 1.265048e+005
9.695000e+002, 1.257975e+005
9.698000e+002, 1.256490e+005
9.701000e+002, 1.269358e+005
9.704000e+002, 1.268434e+005
9.707000e+002, 1.261523e+005
9.710000e+002, 1.244558e+005
9.713000e+002, 1.244026e+005
9.716000e+002, 1.249742e+005
9.719000e+002, 1.245014e+005
9.722000e+002, 1.243813e+005
9.725000e+002, 1.242170e+005
9.728000e+002, 1.245890e+005
9.731000e+002, 1.238666e+005
9.734000e+002, 1.239585e+005
9.737000e+002, 1.229771e+005
9.740000e+002, 1.230431e+005
9.743000e+002, 1.212033e+005
9.746000e+002, 1.222339e+005
9.749000e+002, 1.235416e+005
9.752000e+002, 1.225360e+005
9.755000e+002, 1.233119e+005
9.758000e+002, 1.228665e+005
9.761000e+002, 1.229365e+005
9.764000e+002, 1.236712e+005
9.767000e+002, 1.225453e+005
9.770000e+002, 1.229170e+005
9.773000e+002, 1.233147e+005
9.776000e+002, 1.231431e+005
9.779000e+002, 1.221027e+005
9.782000e+002, 1.219396e+005
9.785000e+002, 1.234548e+005
9.788000e+002, 1.233825e+005
9.791000e+002, 1.223992e+005
9.794000e+002, 1.221611e+005
9.797000e+002, 1.225626e+005
9.800000e+002, 1.227715e+005
9.803000e+002, 1.228558e+005
9.806000e+002, 1.214139e+005
9.809000e+002, 1.208790e+005
9.812000e+002, 1.221889e+005
9.815000e+002, 1.226200e+005
9.818000e+002, 1.232822e+005
9.821000e+002, 1.222780e+005
9.824000e+002, 1.220495e+005
9.827000e+002, 1.224330e+005
9.830000e+002, 1.225070e+005
9.833000e+002, 1.221669e+005
9.836000e+002, 1.214446e+005
9.839000e+002, 1.210749e+005
9.842000e+002, 1.205181e+005
9.845000e+002, 1.190765e+005
9.848000e+002, 1.180513e+005
9.851000e+002, 1.193404e+005
9.854000e+002, 1.199786e+005
9.857000e+002, 1.195462e+005
9.860000e+002, 1.192349e+005
9.863000e+002, 1.188550e+005
9.866000e+002, 1.175541e+005
9.869000e+002, 1.180963e+005
9.872000e+002, 1.195784e+005
9.875000e+002, 1.195463e+005
9.878000e+002, 1.193460e+005
9.881000e+002, 1.190259e+005
9.884000e+002, 1.195724e+005
9.887000e+002, 1.181398e+005
9.890000e+002, 1.161290e+005
9.893000e+002, 1.151422e+005
9.896000e+002, 1.142799e+005
9.899000e+002, 1.151720e+005
9.902000e+002, 1.150786e+005
9.905000e+002, 1.156405e+005
9.908000e+002, 1.159571e+005
9.911000e+002, 1.165469e+005
9.914000e+002, 1.173765e+005
9.917000e+002, 1.174892e+005
9.920000e+002, 1.169892e+005
9.923000e+002, 1.156651e+005
9.926000e+002, 1.151305e+005
9.929000e+002, 1.156509e+005
9.932000e+002, 1.151921e+005
9.935000e+002, 1.141930e+005
9.938000e+002, 1.148846e+005
9.941000e+002, 1.159636e+005
9.944000e+002, 1.157534e+005
9.947000e+002, 1.158189e+005
9.950000e+002, 1.151821e+005
9.953000e+002, 1.134705e+005
9.956000e+002, 1.132824e+005
9.959000e+002, 1.140045e+005
9.962000e+002, 1.146080e+005
9.965000e+002, 1.149330e+005
9.968000e+002, 1.149441e+005
9.971000e+002, 1.145471e+005
9.974000e+002, 1.160643e+005
9.977000e+002, 1.155826e+005
9.980000e+002, 1.144302e+005
9.983000e+002, 1.138874e+005
9.986000e+002, 1.148888e+005
9.989000e+002, 1.146125e+005
9.992000e+002, 1.144469e+005
9.995000e+002, 1.128691e+005
9.998000e+002, 1.132869e+005
1.000100e+003, 1.127276e+005
1.000400e+003, 1.126642e+005
1.000700e+003, 1.121965e+005
1.001000e+003, 1.129374e+005
1.001300e+003, 1.131391e+005
1.001600e+003, 1.129194e+005
1.001900e+003, 1.133110e+005
1.002200e+003, 1.113039e+005
1.002500e+003, 1.110021e+005
1.002800e+003, 1.130977e+005
1.003100e+003, 1.132309e+005
1.003400e+003, 1.129100e+005
1.003700e+003, 1.144168e+005
1.004000e+003, 1.158215e+005
1.004300e+003, 1.144406e+005
1.004600e+003, 1.140660e+005
1.004900e+003, 1.140082e+005
1.005200e+003, 1.128464e+005
1.005500e+003, 1.123265e+005
1.005800e+003, 1.124684e+005
1.006100e+003, 1.134019e+005
1.006400e+003, 1.143777e+005
1.006700e+003, 1.137134e+005
1.007000e+003, 1.126830e+005
1.007300e+003, 1.118385e+005
1.007600e+003, 1.119275e+005
1.007900e+003, 1.113275e+005
1.008200e+003, 1.114765e+005
1.008500e+003, 1.105568e+005
1.008800e+003, 1.103528e+005
1.009100e+003, 1.110781e+005
1.009400e+003, 1.115277e+005
1.009700e+003, 1.124739e+005
1.010000e+003, 1.130906e+005
1.010300e+003, 1.127462e+005
1.010600e+003, 1.125092e+005
1.010900e+003, 1.107642e+005
1.011200e+003, 1.114923e+005
1.011500e+003, 1.105018e+005
1.011800e+003, 1.102098e+005
1.012100e+003, 1.110274e+005
1.012400e+003, 1.110403e+005
1.012700e+003, 1.103546e+005
1.013000e+003, 1.107054e+005
1.013300e+003, 1.116577e+005
1.013600e+003, 1.109460e+005
1.013900e+003, 1.095048e+005
1.014200e+003, 1.075435e+005
1.014500e+003, 1.091415e+005
1.014800e+003, 1.092631e+005
1.015100e+003, 1.102004e+005
1.015400e+003, 1.103576e+005
1.015700e+003, 1.098308e+005
1.016000e+003, 1.079911e+005
1.016300e+003, 1.086135e+005
1.016600e+003, 1.085957e+005
1.016900e+003, 1.094022e+005
1.017200e+003, 1.088597e+005
1.017500e+003, 1.079260e+005
1.017800e+003, 1.079607e+005
1.018100e+003, 1.072925e+005
1.018400e+003, 1.083682e+005
1.018700e+003, 1.086421e+005
1.019000e+003, 1.089734e+005
1.019300e+003, 1.096615e+005
1.019600e+003, 1.100536e+005
1.019900e+003, 1.099141e+005
1.020200e+003, 1.104309e+005
1.020500e+003, 1.095294e+005
1.020800e+003, 1.086204e+005
1.021100e+003, 1.076578e+005
1.021400e+003, 1.069392e+005
1.021700e+003, 1.075314e+005
1.022000e+003, 1.088580e+005
1.022300e+003, 1.077347e+005
1.022600e+003, 1.071103e+005
1.022900e+003, 1.071209e+005
1.023200e+003, 1.056144e+005
1.023500e+003, 1.074955e+005
1.023800e+003, 1.071937e+005
1.024100e+003, 1.068778e+005
1.024400e+003, 1.070789e+005
1.024700e+003, 1.050332e+005
1.025000e+003, 1.044777e+005
1.025300e+003, 1.050727e+005
1.025600e+003, 1.043015e+005
1.025900e+003, 1.044057e+005
1.026200e+003, 1.030262e+005
1.026500e+003, 1.027688e+005
1.026800e+003, 1.041848e+005
1.027100e+003, 1.037510e+005
1.027400e+003, 1.044693e+005
1.027700e+003, 1.043501e+005
1.028000e+003, 1.047224e+005
1.028300e+003, 1.043937e+005
1.028600e+003, 1.047157e+005
1.028900e+003, 1.043768e+005
1.029200e+003, 1.056596e+005
1.029500e+003, 1.046355e+005
1.029800e+003, 1.036443e+005
1.030100e+003, 1.030690e+005
1.030400e+003, 1.031257e+005
1.030700e+003, 1.027554e+005
1.031000e+003, 1.024140e+005
1.031300e+003, 1.032397e+005
1.031600e+003, 1.053022e+005
1.031900e+003, 1.046320e+005
1.032200e+003, 1.033052e+005
1.032500e+003, 1.029639e+005
1.032800e+003, 1.029809e+005
1.033100e+003, 1.034486e+005
1.033400e+003, 1.021377e+005
1.033700e+003, 1.027816e+005
1.034000e+003, 1.035020e+005
1.034300e+003, 1.027564e+005
1.034600e+003, 1.013796e+005
1.034900e+003, 1.012915e+005
1.035200e+003, 1.021017e+005
1.035500e+003, 1.024658e+005
1.035800e+003, 1.015777e+005
1.036100e+003, 1.009503e+005
1.036400e+003, 1.016648e+005
1.036700e+003, 1.022238e+005
1.037000e+003, 1.019135e+005
1.037300e+003, 1.015320e+005
1.037600e+003, 1.003721e+005
1.037900e+003, 1.006599e+005
1.038200e+003, 1.011504e+005
1.038500e+003, 1.000965e+005
1.038800e+003, 1.009292e+005
1.039100e+003, 1.011648e+005
1.039400e+003, 1.013366e+005
1.039700e+003, 1.017361e+005
1.040000e+003, 1.005276e+005
1.040300e+003, 1.004786e+005
1.040600e+003, 1.003719e+005
1.040900e+003, 1.001832e+005
1.041200e+003, 1.008064e+005
1.041500e+003, 1.000751e+005
1.041800e+003, 9.958267e+004
1.042100e+003, 9.979633e+004
1.042400e+003, 9.934621e+004
1.042700e+003, 9.907413e+004
1.043000e+003, 9.775080e+004
1.043300e+003, 9.750259e+004
1.043600e+003, 9.839484e+004
1.043900e+003, 9.958396e+004
1.044200e+003, 1.005344e+005
1.044500e+003, 1.012668e+005
1.044800e+003, 9.955947e+004
1.045100e+003, 1.002609e+005
1.045400e+003, 1.011024e+005
1.045700e+003, 9.988910e+004
1.046000e+003, 9.861131e+004
1.046300e+003, 9.803657e+004
1.046600e+003, 9.935759e+004
1.046900e+003, 9.890275e+004
1.047200e+003, 9.900837e+004
1.047500e+003, 9.900127e+004
1.047800e+003, 9.900785e+004
1.048100e+003, 9.792472e+004
1.048400e+003, 9.745152e+004
1.048700e+003, 9.626266e+004
1.049000e+003, 9.603416e+004
1.049300e+003, 9.626300e+004
1.049600e+003, 9.640213e+004
1.049900e+003, 9.751453e+004
1.050200e+003, 9.680190e+004
1.050500e+003, 9.703601e+004
1.050800e+003, 9.674159e+004
1.051100e+003, 9.663303e+004
1.051400e+003, 9.745557e+004
1.051700e+003, 9.782249e+004
1.052000e+003, 9.799274e+004
1.052300e+003, 9.760883e+004
1.052600e+003, 9.825086e+004
1.052900e+003, 9.865544e+004
1.053200e+003, 9.643900e+004
1.053500e+003, 9.439345e+004
1.053800e+003, 9.495478e+004
1.054100e+003, 9.446561e+004
#ENDOFDATA   : End Of Data and File